Bruker BioSpin GmbH: the minispec
DataType=1
DataLimits=0.01044,9.83964,8192
DataUnit=Time/ms,Intensity/%
c:\users\student\documents\nmr-apps\fid_pcii.app
07.01.2025 15:49:40

105.81
106.122
106.357
106.567
106.747
106.513
105.961
105.433
105.326
105.197
105.424
105.89
106.166
105.731
105.463
105.062
104.994
105.099
105.189
105.343
105.419
105.375
105.241
105.206
105.045
105.004
104.969
104.928
104.982
105.094
105.079
105.04
104.933
104.835
104.796
104.742
104.813
104.906
104.879
104.904
104.755
104.735
104.725
104.713
104.737
104.576
104.691
104.647
104.484
104.515
104.608
104.554
104.396
104.352
104.354
104.376
104.398
104.469
104.413
104.442
104.4
104.3
104.21
104.178
104.188
104.281
104.247
104.303
104.176
104.085
104.161
104.291
104.125
104.093
104.083
103.988
104.032
104.034
103.893
103.98
104.012
104.088
104.002
103.8
103.785
103.675
103.643
103.668
103.763
103.626
103.712
103.646
103.697
103.748
103.726
103.641
103.516
103.426
103.458
103.402
103.358
103.211
103.37
103.433
103.37
103.197
103.248
103.182
102.979
103.074
103.17
103.145
103.055
103.021
102.95
102.93
102.923
102.901
102.821
102.777
102.755
102.75
102.796
102.733
102.584
102.676
102.613
102.596
102.464
102.361
102.501
102.462
102.347
102.366
102.259
102.195
102.315
102.22
101.998
101.917
101.871
101.971
102
101.973
101.924
101.915
101.846
101.8
101.697
101.643
101.595
101.565
101.558
101.477
101.394
101.514
101.465
101.404
101.485
101.275
101.219
101.241
101.187
101.116
101.111
101.089
101.05
101.172
101.045
100.965
100.799
100.703
100.703
100.65
100.527
100.654
100.488
100.581
100.554
100.554
100.466
100.335
100.305
100.288
100.227
100.149
100.164
100.112
100.015
99.8828
99.9341
99.8437
99.8437
99.8217
99.7729
99.7802
99.7705
99.7192
99.5263
99.4359
99.4066
99.3944
99.304
99.2137
99.2112
99.0965
99.0916
99.0745
98.989
99.0623
98.967
98.884
98.8254
98.6716
98.6789
98.6496
98.6569
98.4078
98.3858
98.3639
98.4444
98.3492
98.2076
98.1465
98.0904
98.1172
98.1148
98.1197
98.0659
97.9829
97.8266
97.812
97.7192
97.6044
97.6093
97.5824
97.6606
97.6166
97.558
97.3578
97.2601
97.2039
97.2137
97.1648
97.0134
96.8742
96.9768
96.9426
96.84
96.7619
96.6862
96.6227
96.4908
96.4054
96.3956
96.3639
96.2369
96.2051
96.0733
96.0098
96.0147
95.895
95.9121
95.9585
95.8706
95.895
95.873
95.7949
95.6068
95.4823
95.3578
95.4164
95.3114
95.243
95.0989
95.1429
95.0183
95.0403
94.9133
94.9402
94.7741
94.6593
94.4493
94.486
94.5201
94.3468
94.2808
94.2759
94.0952
94.0195
94.0562
94.0781
93.8584
93.7851
93.768
93.7582
93.663
93.5214
93.5482
93.37
93.2723
93.3797
93.3065
93.3602
93.1453
92.9621
92.9939
92.9841
92.8987
92.7009
92.6325
92.6276
92.5641
92.4322
92.4274
92.337
92.0928
92.0488
92.0855
92.0708
91.9878
91.873
91.7094
91.6972
91.6777
91.4383
91.5067
91.3944
91.2015
91.2283
91.2259
91.1722
91.0794
91.0403
90.8694
90.7399
90.7717
90.6716
90.5153
90.337
90.3321
90.3736
90.3175
90.2784
90.1538
90.127
89.9976
89.8486
89.7729
89.7192
89.6679
89.558
89.558
89.4896
89.2845
89.199
89.0452
88.8376
88.8034
88.7717
88.7912
88.7253
88.6789
88.757
88.6471
88.4982
88.293
88.2979
88.2833
88.2002
88.1685
88
87.7607
87.7582
87.6239
87.558
87.5604
87.3895
87.3846
87.3236
87.2063
87.1136
87.116
87.1087
86.9402
86.8254
86.674
86.6129
86.5275
86.4542
86.3516
86.3394
86.315
86.3614
86.2247
86.0513
85.9707
85.8584
85.768
85.7289
85.6313
85.5092
85.3236
85.2918
85.1673
85.1453
84.9451
84.9841
84.9866
84.7204
84.6056
84.442
84.4884
84.2979
84.232
84.1758
84.2271
84.0464
83.8706
83.8388
83.7314
83.6215
83.5653
83.5433
83.3773
83.2552
83.2723
83.1966
83.1551
83.0842
82.8669
82.7839
82.7057
82.5495
82.569
82.5128
82.4054
82.2418
82.1368
82.1197
81.8608
81.7143
81.6068
81.6093
81.5311
81.4725
81.4554
81.3236
81.243
81.1233
81.0012
80.801
80.7766
80.7228
80.5739
80.5714
80.4762
80.3199
80.1026
80.0781
80.0952
79.9121
79.9023
79.7827
79.5482
79.4286
79.4212
79.4579
79.4481
79.4188
79.2039
79.177
78.9988
78.8181
78.7521
78.652
78.6129
78.5812
78.4151
78.3565
78.2808
78.2418
77.9609
77.8584
77.768
77.6972
77.685
77.5702
77.5824
77.4408
77.3553
77.2234
76.9621
76.8742
76.7839
76.7228
76.6496
76.4933
76.4786
76.3346
76.1978
76.0684
75.9609
75.9536
75.8266
75.7949
75.812
75.6752
75.5067
75.5018
75.4432
75.3578
75.1038
74.8962
74.8523
74.7302
74.6618
74.5641
74.4029
74.2906
74.2002
74.1148
74.1441
73.9292
73.7411
73.6654
73.5824
73.4823
73.3797
73.4725
73.3236
73.221
73.0867
72.8962
72.8449
72.7302
72.5812
72.4982
72.5031
72.464
72.3321
72.2149
72.0806
71.9365
71.9023
71.8462
71.7753
71.5726
71.5238
71.2772
71.1429
71.1697
70.9817
70.8718
70.8303
70.8107
70.6227
70.4737
70.4176
70.3199
70.3639
70.0952
69.978
69.7411
69.8242
69.7607
69.7436
69.6239
69.348
69.1722
69.1184
69.1209
69.1722
68.9915
68.9646
68.7204
68.5519
68.4396
68.2515
68.3565
68.2076
68.0293
67.8095
67.8413
67.7631
67.663
67.5946
67.4505
67.4066
67.265
67.1868
67.0379
66.9133
66.8474
66.674
66.5934
66.3321
66.2442
66.2784
66.1685
66.0635
65.8828
65.768
65.8046
65.6264
65.4701
65.5067
65.4628
65.0891
65.0305
65.0696
64.9206
64.7473
64.5739
64.591
64.4933
64.4054
64.4054
64.1245
63.9658
63.8608
63.8022
63.7729
63.7265
63.6044
63.3724
63.3187
63.1233
63.0037
63.0403
62.8816
62.7888
62.6716
62.5006
62.4567
62.3492
62.315
62.2393
62.1221
61.8755
61.7485
61.7656
61.7143
61.6068
61.5556
61.3504
61.1795
61.1306
60.9817
60.8474
60.7888
60.6129
60.5641
60.5324
60.3687
60.2979
60
59.9341
59.8657
59.7778
59.8242
59.6166
59.4774
59.4701
59.3602
59.0965
59.1697
59.0183
58.9573
58.7448
58.674
58.5983
58.4029
58.2442
58.1929
58.0537
57.956
58.0073
57.9438
57.8193
57.5653
57.5336
57.3455
57.2845
57.2381
57.1184
57.0769
56.9744
56.9719
56.7082
56.4689
56.4444
56.2222
56.2955
56.1636
56.022
55.9267
55.7875
55.7656
55.5433
55.4701
55.3578
55.1136
55.0769
55.0916
55.0379
54.9695
54.7961
54.5519
54.3516
54.464
54.3126
54.2271
54.0684
53.9878
53.8217
53.7289
53.6264
53.536
53.5556
53.4676
53.2015
53.0525
53.0501
53.0745
52.84
52.8645
52.7473
52.5885
52.5714
52.5348
52.3199
52.2442
52.1074
51.917
51.7411
51.746
51.6142
51.4505
51.2625
51.2723
51.16
50.989
50.967
50.7937
50.6642
50.63
50.5763
50.4078
50.359
50.3761
50.0806
49.9658
49.8755
49.7192
49.6093
49.5165
49.5678
49.4725
49.2845
49.3187
49.1306
49.1111
49.0037
48.7717
48.6886
48.5226
48.4127
48.2857
48.1197
48.0391
48.0317
47.8168
47.8144
47.7631
47.619
47.4359
47.3724
47.265
47.3724
47.177
47.0623
46.9475
46.7937
46.7033
46.6032
46.5275
46.3541
46.2613
46.1807
46.0269
45.9878
45.8291
45.8144
45.7265
45.6801
45.4847
45.4042
45.4261
45.2332
45.0647
44.9084
44.8523
44.7839
44.5983
44.4908
44.4078
44.3956
44.2564
44.1099
44.022
43.9853
43.8144
43.58
43.6215
43.409
43.3431
43.3504
43.2576
43.2112
42.9963
42.7863
42.7668
42.6007
42.6642
42.5617
42.2491
42.21
42.1807
42.044
42.0293
41.9609
41.8193
41.6264
41.6386
41.5507
41.4212
41.2845
41.1551
41.0647
41.0134
41.0085
40.8132
40.8498
40.6691
40.5177
40.4005
40.3663
40.3126
40.1441
40.1123
39.9731
39.8828
39.812
39.6923
39.5653
39.5214
39.4457
39.3284
39.2723
39.1038
38.8718
38.8352
38.7839
38.6447
38.6056
38.4322
38.3834
38.3175
38.254
38.0317
37.8999
37.9389
37.7387
37.8388
37.7436
37.6606
37.4383
37.37
37.3284
37.243
37.243
36.9988
36.7692
36.6471
36.6105
36.5836
36.3785
36.232
36.1514
36.1758
36.1538
36.127
36
35.8559
35.6874
35.5873
35.5287
35.3748
35.177
35.1893
35.0696
34.967
34.9841
34.7839
34.8132
34.7692
34.7424
34.652
34.4762
34.3541
34.2808
34.2295
34.1001
33.8999
33.873
33.9219
33.7509
33.641
33.5775
33.409
33.1966
33.1551
33.0525
32.9744
32.8449
32.8132
32.7717
32.6642
32.7155
32.4982
32.3077
32.3175
32.3321
32.2344
32.0342
32.0806
31.9414
31.7778
31.6459
31.5433
31.5678
31.5702
31.4261
31.3748
31.2308
31.1673
31.0916
31.0134
30.7741
30.7155
30.7741
30.7375
30.5934
30.4982
30.4957
30.293
30.1832
30.0659
29.8852
29.8217
29.6068
29.6068
29.5678
29.475
29.4212
29.3944
29.3333
29.2259
29.0427
29.1209
28.9817
28.7741
28.6252
28.6422
28.5495
28.5812
28.4078
28.2906
28.1441
27.9853
28.0366
27.9902
28.0488
27.8364
27.79
27.7314
27.5653
27.58
27.5336
27.4432
27.3211
27.2039
27.1355
27.0232
27.0256
26.8962
26.8547
26.7668
26.6447
26.5372
26.4371
26.3516
26.2857
26.1905
26.1954
26.1905
26.1099
25.9194
25.7949
25.6654
25.6215
25.602
25.602
25.4408
25.3944
25.2869
25.2601
25.1013
25.0305
24.9817
24.9695
24.8864
24.8449
24.7741
24.6398
24.6056
24.5397
24.3883
24.3272
24.2442
24.3126
24.1832
24.0317
24.0611
23.9414
23.8046
23.7338
23.7582
23.7338
23.5971
23.5043
23.4188
23.2601
23.1038
23.1038
23.0134
22.9719
22.906
22.8645
22.8791
22.7814
22.7204
22.7179
22.6276
22.4713
22.4298
22.4737
22.3297
22.2686
22.3004
22.2149
22.1465
21.9585
21.9634
21.8168
21.7705
21.6703
21.5189
21.5751
21.5214
21.5214
21.2625
21.1746
21.243
21.1404
21.0769
21.0232
20.9792
20.9109
20.7253
20.7961
20.63
20.652
20.6252
20.5299
20.5128
20.3858
20.4005
20.3053
20.2271
19.9585
19.9048
19.9731
19.8632
19.8217
19.7558
19.8291
19.8291
19.6264
19.5116
19.4701
19.4188
19.4774
19.5092
19.3309
19.0183
19.0134
19.033
18.9719
18.8645
18.8645
18.8913
18.7057
18.7643
18.7155
18.6422
18.6252
18.5788
18.5568
18.4737
18.5031
18.381
18.3175
18.3175
18.1343
18.1929
18.0391
17.9805
17.9072
17.8999
17.9316
17.7851
17.8462
17.851
17.7045
17.5897
17.431
17.3114
17.1013
17.2332
17.2772
17.2454
17.2943
17.1502
17.0867
17.0965
17.1282
17.0769
16.9035
16.8742
16.8278
16.7302
16.6691
16.6276
16.7057
16.5592
16.5788
16.5006
16.4762
16.3785
16.3932
16.2979
16.1319
16.1978
16.2735
16.1148
16.022
15.8657
16.0293
15.9121
15.9585
15.873
15.7778
15.8364
15.7021
15.5751
15.5092
15.4628
15.5849
15.4115
15.3602
15.221
15.138
15.1233
15.1917
15.2308
15.265
15.2821
15.1819
15.1477
14.9768
15.0574
15.1233
14.9573
14.9646
14.928
14.7131
14.7326
14.7912
14.7106
14.6276
14.6007
14.5934
14.5958
14.5714
14.4957
14.4933
14.4982
14.4957
14.4078
14.3932
14.3858
14.2369
14.3248
14.1368
13.9756
14.1197
14.0733
13.9487
13.9805
14.1343
14.0684
13.9365
13.9487
13.8242
13.8071
13.9463
13.873
13.6874
13.6752
13.6361
13.5971
13.6044
13.6264
13.6386
13.641
13.5653
13.6703
13.4896
13.37
13.3675
13.3724
13.4383
13.265
13.326
13.3675
13.2991
13.2576
13.0476
13.1722
13.2308
13.16
13.1746
13.1575
13.0842
13.033
13.1209
13.1331
13.0574
12.8791
12.8816
12.9377
12.8376
12.9206
12.9328
12.8083
12.7595
12.862
12.9035
12.7131
12.8327
12.779
12.6349
12.6667
12.6227
12.6447
12.6716
12.7179
12.6276
12.6667
12.7228
12.5568
12.4786
12.3932
12.5275
12.4469
12.5568
12.4737
12.3468
12.4176
12.5275
12.5153
12.4518
12.3663
12.2759
12.2198
12.4005
12.3419
12.2442
12.1929
12.2076
12.2027
12.337
12.3394
12.2662
12.2564
12.2735
12.2882
12.2222
12.0415
12.0977
12.0317
12.0098
12.083
12.083
12.1563
12.0562
12.0513
12.0293
12.0415
12.0391
11.8779
12.083
12.1026
11.9121
11.9878
12.0244
12.1685
12.1685
12.0659
12.0488
12.0269
12.1123
11.9853
11.768
11.7924
11.895
11.9512
11.956
11.8779
11.9145
11.9414
11.8071
11.7118
11.8632
11.8681
11.7729
11.812
11.7973
11.8681
11.8291
11.8535
11.8193
11.8437
11.7802
11.6972
11.7631
11.5653
11.6581
11.8022
11.8046
11.7118
11.7802
11.8242
11.8608
11.7118
11.5751
11.6777
11.79
11.8437
11.8632
11.8144
11.8828
11.8022
11.6996
11.7363
11.7338
11.7851
11.8413
11.7875
11.6679
11.6508
11.6142
11.5604
11.5604
11.6752
11.6386
11.6923
11.6508
11.5775
11.5629
11.7265
11.8437
11.7143
11.6068
11.6239
11.6972
11.6557
11.7045
11.7534
11.6777
11.7363
11.7167
11.768
11.5946
11.6386
11.6068
11.5849
11.6825
11.6142
11.6923
11.6801
11.7216
11.7827
11.6728
11.7314
11.6166
11.5604
11.6386
11.5897
11.7705
11.7924
11.7656
11.8046
11.7167
11.6923
11.536
11.6386
11.5922
11.7998
11.8046
11.7216
11.8022
11.6825
11.7216
11.7534
11.7045
11.7167
11.6117
11.7485
11.7509
11.7289
11.7338
11.7924
11.9194
11.6899
11.6679
11.6996
11.746
11.7875
11.7753
11.8242
11.6947
11.812
11.8462
11.7118
11.7631
11.6435
11.8193
11.8071
11.6728
11.746
11.768
11.6557
11.6752
11.8046
11.7143
11.7241
11.9292
11.9853
11.9658
11.9194
11.8974
11.7607
11.7411
11.851
11.7875
11.8437
11.7802
11.8437
11.8315
11.8217
11.873
11.7509
11.8266
11.7338
11.8095
11.8364
11.768
11.8681
11.8217
11.8364
11.9292
11.9072
11.8779
11.9609
11.8291
11.79
11.8608
11.8559
11.746
11.7973
11.6581
11.8144
11.7705
11.8095
11.8291
11.7411
11.8193
12.0049
11.9634
11.9683
11.8901
11.8462
11.685
11.7949
11.873
11.9658
11.9487
11.9072
11.8657
11.8486
11.7363
11.8608
11.895
11.9609
11.8901
11.8681
11.8291
11.8852
11.956
11.8828
12.0171
11.9048
11.8852
11.8315
11.8926
11.9731
11.9072
11.8584
11.8559
11.9121
11.8339
11.8706
11.8437
11.851
11.9683
11.851
11.8999
11.8144
11.7436
11.8462
11.8632
11.9194
11.9121
11.9267
11.8291
11.8779
12.0122
11.9389
11.8632
11.8046
11.7338
11.8339
11.8535
11.8193
11.6874
11.7558
11.9292
11.9878
11.9243
11.79
11.8828
11.8168
11.851
11.851
11.5995
11.7338
11.8266
11.8193
11.8315
11.7729
11.8584
11.8291
11.9438
11.9707
11.956
11.8559
11.8706
11.8266
11.8046
11.8046
11.6825
11.663
11.7509
11.7338
11.8242
11.9048
11.8974
11.8217
11.812
11.9438
11.9389
11.8144
11.7827
11.7411
11.6874
11.7363
11.7631
11.7143
11.8413
11.8291
11.7949
11.7705
11.6703
11.7265
11.7118
11.768
11.7778
11.768
11.8803
11.768
11.8095
11.6874
11.7485
11.768
11.6874
11.8095
11.6435
11.6654
11.6459
11.7363
11.7265
11.5897
11.6361
11.6239
11.6825
11.6239
11.6947
11.6581
11.5238
11.5678
11.5653
11.685
11.6752
11.5922
11.6166
11.5946
11.5946
11.4286
11.5067
11.6386
11.6093
11.7582
11.6459
11.6532
11.6484
11.6361
11.7021
11.5849
11.6581
11.5409
11.5629
11.6142
11.4921
11.5263
11.4554
11.5067
11.4286
11.5067
11.4579
11.3871
11.5556
11.4628
11.4457
11.3675
11.4505
11.3895
11.3846
11.5165
11.4457
11.3919
11.4164
11.3284
11.3431
11.3065
11.4701
11.2869
11.3309
11.3529
11.3626
11.3822
11.2308
11.3187
11.304
11.1966
11.2625
11.265
11.2527
11.2894
11.1184
11.2796
11.2601
11.1893
11.0501
11.1673
11.2112
11.1722
11.2918
11.1868
11.2088
11.1184
11.0672
11.0916
11.1062
11.2088
11.1819
11.2527
11.1184
10.9426
10.9744
10.9695
11.1331
11.0647
11.0232
10.9548
10.9377
10.9206
10.8816
11.011
10.9377
11.0427
11.0598
10.9524
10.967
10.7937
10.9084
10.9206
10.9621
11.0256
10.906
10.757
10.7497
10.8767
10.862
10.8889
10.8327
10.8547
10.9109
10.8913
10.9109
10.8156
10.8059
10.8791
10.801
10.8913
10.8059
10.7521
10.7766
10.7424
10.6789
10.5739
10.591
10.5324
10.6325
10.6056
10.6203
10.6764
10.5275
10.569
10.6862
10.6325
10.6471
10.5836
10.5153
10.4811
10.4249
10.464
10.3468
10.4347
10.3614
10.4762
10.5397
10.3883
10.5201
10.381
10.2808
10.2418
10.3053
10.3443
10.1538
10.3443
10.2466
10.3272
10.2686
10.1734
10.2515
10.2027
10.2271
10.1734
10.3248
10.3639
10.1709
10.1709
10.0366
10.0244
10.0708
10.2759
10.2247
10.0733
10.0757
9.95604
10.0244
10.1197
10.0024
10.0391
9.92918
10.0415
9.83394
10
9.96337
9.8779
9.97314
9.85348
9.84615
9.88278
9.9243
9.83883
9.6337
9.73382
9.78266
9.79731
9.78999
9.66789
9.69963
9.69475
9.78999
9.74847
9.73138
9.77045
9.6044
9.68254
9.72161
9.79487
9.70696
9.53358
9.56532
9.56044
9.55556
9.48962
9.47009
9.50183
9.43101
9.40659
9.39927
9.5409
9.39438
9.36752
9.40904
9.39194
9.53358
9.44078
9.39194
9.30159
9.15018
9.08669
9.09646
9.1453
9.02564
9.15263
9.116
9.18926
9.07692
8.98901
9.19902
9.19414
9.17705
9.03053
8.9011
8.92308
8.86203
9.01099
9.0696
9.01343
8.96215
8.81319
8.75946
8.75946
8.91575
8.92063
8.86691
8.84737
8.8083
8.84249
8.71795
8.71062
8.75458
8.57631
8.67155
8.66178
8.66422
8.75946
8.77656
8.70818
8.57631
8.48596
8.57387
8.59585
8.67643
8.65934
8.58852
8.59829
8.57387
8.42002
8.44933
8.43468
8.39316
8.62515
8.57143
8.43468
8.25397
8.29548
8.32723
8.34188
8.22711
8.05128
8.19048
8.28083
8.30037
8.37363
8.18559
8.11966
8.06105
8.1978
8.14408
8.09524
8.09768
8.04884
8.0757
8.09768
8.00977
8.08303
7.96581
7.94872
7.89255
7.79976
7.83394
7.72894
7.83883
7.69719
7.7558
7.8486
7.69963
7.78266
7.74603
7.79243
7.64103
7.65812
7.73626
7.59707
7.74359
7.57021
7.67521
7.49939
7.3895
7.59951
7.50183
7.56288
7.59463
7.60195
7.42613
7.25519
7.3138
7.33578
7.49206
7.47497
7.31136
7.27961
7.28938
7.29915
7.23565
7.18193
7.26007
7.32845
7.27961
7.08669
7.13309
7.02564
7.18926
7.0696
7.19902
7.24298
7.16239
7.05495
6.98168
7.00611
7.07448
6.94994
7.01832
7.01099
6.97924
6.84493
6.80586
6.94994
6.84493
6.9011
6.81563
6.7326
6.82784
6.79121
6.78144
6.66667
6.72283
6.63736
6.70085
6.66911
6.54945
6.68132
6.60806
6.51526
6.69353
6.62027
6.49817
6.28327
6.45421
6.46154
6.25885
6.32234
6.34432
6.44444
6.25885
6.3663
6.24176
6.24176
6.32967
6.23443
6.21734
6.1978
6.17827
6.19536
6.04884
6.05617
5.99756
6.03175
6.10745
6.0757
6.04396
5.8779
6.00733
5.99756
5.96825
5.96093
5.85836
5.96337
5.86081
5.91941
5.88767
5.91697
5.77778
5.74359
5.79731
5.75824
5.73871
5.64347
5.75824
5.68254
5.58242
5.60684
5.65568
5.77289
5.62637
5.67521
5.56532
5.45055
5.44567
5.51648
5.53114
5.53114
5.53846
5.40415
5.2967
5.45788
5.40904
5.33089
5.39194
5.33578
5.27717
5.21856
5.28694
5.22833
5.16728
5.2967
5.17705
5.11355
5.07448
5.14774
5.04274
5.01832
5.15263
5.03053
4.93773
4.95971
4.88156
4.86935
4.86203
4.9475
4.94994
4.94994
4.96947
4.86447
4.94261
4.9011
4.95726
4.8547
4.85226
4.75702
4.67643
4.74481
4.67643
4.68376
4.68864
4.58364
4.63248
4.47131
4.66667
4.64957
4.61294
4.41026
4.50305
4.48596
4.33944
4.36386
4.33944
4.38828
4.40293
4.38339
4.37607
4.15873
4.15629
4.33455
4.28816
4.442
4.31013
4.30525
4.17582
4.30525
4.27839
4.23932
4.23932
3.96581
4.07326
4.05861
4.1221
4.21001
4.06349
4.04884
3.99512
4.09768
4.05861
3.92186
3.8779
3.78755
3.77045
3.78755
3.91941
3.89011
3.81685
3.86325
3.80952
3.76557
3.76801
3.67277
3.62149
3.70696
3.76557
3.5873
3.58486
3.62882
3.56288
3.62637
3.53358
3.62149
3.60684
3.67766
3.73138
3.63614
3.54579
3.39683
3.44567
3.41148
3.37241
3.40659
3.38217
3.41148
3.28205
3.32357
3.28694
3.29426
3.30891
3.1746
3.30647
3.20635
3.15995
3.13309
3.21123
3.16972
3.07937
3.11844
3.07448
2.98413
3.02808
2.91331
2.99389
2.96215
3.08669
3.11355
2.88645
2.95238
2.95482
2.91819
2.80098
2.76923
2.78388
2.7033
2.86691
2.79365
2.86447
2.7619
2.74481
2.81074
2.66911
2.73016
2.70574
2.64225
2.6105
2.65446
2.78632
2.74481
2.69841
2.64713
2.42735
2.40781
2.42735
2.57631
2.48352
2.54457
2.55678
2.35165
2.38828
2.33455
2.37851
2.52503
2.50061
2.40293
2.2735
2.38339
2.31258
2.337
2.30769
2.28083
2.31013
2.12698
2.27595
2.25641
2.19048
2.24664
2.24176
2.20269
2.04151
2.06105
2.12698
2.07814
1.95604
1.96093
2.05128
2.00977
1.99267
1.97558
1.96825
1.9243
1.84371
1.9243
1.87302
1.90232
1.90476
1.90232
1.98291
1.86325
2.03175
1.89988
1.83394
1.86081
1.72894
1.90965
1.71917
1.74603
1.67033
1.68498
1.66056
1.49451
1.60928
1.52625
1.48474
1.53846
1.39438
1.54579
1.55556
1.57753
1.56777
1.49451
1.54579
1.45055
1.44567
1.32112
1.49695
1.47009
1.25519
1.29915
1.30159
1.47985
1.36508
1.37729
1.34799
1.32357
1.34799
1.25031
1.22344
1.19658
1.24542
1.20391
1.03541
1.26984
1.221
1.21368
1.18926
1.09402
1.15507
1.06716
1.20391
1.17949
1.13065
1.15018
1.1746
1.10134
1.04274
1.14286
1.03297
0.952381
0.967033
0.986569
0.986569
0.962149
1.00122
0.896215
0.984127
0.984127
0.876679
0.857143
0.786325
0.825397
0.818071
0.815629
0.869353
0.778999
0.766789
0.717949
0.639805
0.791209
0.730159
0.788767
0.634921
0.820513
0.732601
0.749695
0.862027
0.818071
0.866911
0.688645
0.644689
0.600733
0.610501
0.781441
0.720391
0.691087
0.554335
0.612943
0.639805
0.539683
0.632479
0.610501
0.698413
0.561661
0.556777
0.612943
0.561661
0.637363
0.537241
0.644689
0.466422
0.412698
0.444444
0.483516
0.500611
0.46398
0.383394
0.483516
0.520147
0.507937
0.483516
0.522589
0.454212
0.507937
0.603175
0.637363
0.590965
0.461538
0.449328
0.493284
0.490842
0.481074
0.417582
0.432234
0.37851
0.376068
0.395604
0.461538
0.544567
0.493284
0.529915
0.420024
0.454212
0.437118
0.407814
0.358974
0.322344
0.478632
0.398046
0.339438
0.322344
0.2442
0.442002
0.503053
0.510379
0.468864
0.598291
0.527473
0.437118
0.500611
0.398046
0.446886
0.598291
0.554335
0.549451
0.544567
0.573871
0.466422
0.385836
0.46398
0.35409
0.566545
0.515263
0.669109
0.603175
0.649573
0.647131
0.522589
0.754579
0.666667
0.627595
0.622711
0.766789
0.842491
0.715507
0.739927
0.673993
0.659341
0.656899
0.632479
0.744811
0.708181
0.747253
0.730159
0.656899
0.695971
0.649573
0.710623
0.600733
0.749695
0.698413
0.683761
0.830281
0.769231
0.910867
0.793651
0.800977
0.864469
0.864469
0.942613
0.857143
0.962149
0.810745
0.913309
0.925519
0.844933
0.986569
0.862027
0.989011
0.844933
0.940171
1.04762
0.884005
0.967033
0.800977
0.949939
0.842491
0.959707
1.09158
1.02808
1.12332
1.01343
0.974359
0.949939
0.927961
1.03053
1.04518
1.07204
1.01587
1.08913
1.13797
1.05006
1.21856
1.0989
1.1453
1.13553
1.06716
1.11111
1.116
1.21856
1.12088
1.14286
1.23077
1.10867
1.15507
1.17949
1.23321
1.08669
1.19658
1.20879
1.32845
1.30403
1.07937
1.23077
1.25031
1.14042
1.35043
1.25275
1.27961
1.20635
1.15263
1.221
1.18193
1.30403
1.21612
1.24542
1.21612
1.21856
1.26984
1.32112
1.31624
1.35043
1.26984
1.31136
1.2674
1.36752
1.18437
1.29915
1.30891
1.27961
1.30403
1.3895
1.56777
1.34554
1.37241
1.33089
1.28938
1.33578
1.27228
1.42125
1.31136
1.36508
1.47253
1.47497
1.40415
1.35775
1.38462
1.33333
1.33578
1.38706
1.24298
1.43834
1.30647
1.29426
1.42613
1.37485
1.47985
1.39927
1.58242
1.3895
1.40659
1.48474
1.33333
1.56777
1.52137
1.50916
1.43834
1.43346
1.47985
1.45055
1.6337
1.55067
1.50183
1.58974
1.5116
1.63126
1.5409
1.56532
1.49451
1.47253
1.44811
1.49451
1.5873
1.45788
1.56044
1.50916
1.49695
1.52625
1.40904
1.46276
1.52625
1.65568
1.65079
1.44567
1.61172
1.55556
1.68498
1.6044
1.59463
1.65079
1.55067
1.71917
1.61172
1.66789
1.72894
1.71673
1.78755
1.64103
1.74115
1.67277
1.81929
1.70208
1.64835
1.63126
1.57265
1.70208
1.63858
1.59463
1.6337
1.55067
1.65324
1.56044
1.58974
1.7094
1.65079
1.79487
1.69475
1.70208
1.5873
1.66056
1.69963
1.5873
1.65079
1.63614
1.72405
1.75092
1.68254
1.67766
1.63858
1.76068
1.69719
1.77289
1.67521
1.65079
1.70208
1.59219
1.69231
1.75824
1.70452
1.74847
1.67033
1.72161
1.58486
1.68498
1.67521
1.50916
1.64835
1.63614
1.81197
1.66789
1.65812
1.663
1.73382
1.77534
1.62393
1.59707
1.69231
1.71184
1.63858
1.7851
1.83394
1.65568
1.71184
1.73138
1.71673
1.83883
1.81441
1.79976
1.67766
1.77778
1.78999
1.8315
1.89255
1.75336
1.8022
1.76068
1.68498
1.76313
1.69963
1.8779
1.66545
1.68498
1.76068
1.85836
1.89255
1.74603
1.86325
1.86325
1.9243
1.87546
1.7265
1.73382
1.69963
1.88034
1.77778
1.60684
1.7094
1.70208
1.7265
1.55556
1.62882
1.63858
1.663
1.78022
1.72405
1.77778
1.67766
1.75092
1.80708
1.69963
1.91941
1.75824
1.78266
1.77534
1.74359
1.77534
1.69231
1.72161
1.79731
1.83639
1.75336
1.68742
1.75336
1.72894
1.75092
1.68498
1.77045
1.7851
1.60195
1.77778
1.71917
1.73626
1.78022
1.6337
1.73138
1.68742
1.7265
1.5873
1.73871
1.64835
1.58486
1.77534
1.58974
1.77534
1.77778
1.70452
1.68987
1.61172
1.80464
1.69963
1.65812
1.62637
1.7094
1.79976
1.65568
1.80952
1.8315
1.70452
1.71673
1.66056
1.69475
1.66789
1.67766
1.73138
1.59463
1.63614
1.59463
1.8022
1.64835
1.61905
1.69231
1.64591
1.64103
1.55311
1.73382
1.67766
1.65079
1.6801
1.49939
1.59219
1.49451
1.62637
1.62882
1.62393
1.64103
1.63858
1.58242
1.49695
1.4652
1.48474
1.58242
1.6801
1.57998
1.73871
1.64835
1.58242
1.56044
1.5409
1.63858
1.47009
1.52137
1.62149
1.57265
1.5873
1.51893
1.55067
1.53358
1.62149
1.53358
1.52381
1.61416
1.56288
1.60195
1.58242
1.53602
1.64347
1.44567
1.57509
1.44322
1.47985
1.52625
1.59707
1.68498
1.42125
1.53602
1.50916
1.4823
1.45788
1.41392
1.58486
1.49695
1.55067
1.53358
1.42613
1.51648
1.59463
1.68254
1.50916
1.39194
1.46032
1.47985
1.57509
1.50916
1.55556
1.41392
1.51648
1.58486
1.46276
1.50427
1.34066
1.44078
1.33578
1.45788
1.42857
1.38217
1.54579
1.54335
1.54335
1.45055
1.40659
1.44078
1.27473
1.36996
1.43346
1.50427
1.5409
1.35531
1.31136
1.25519
1.3895
1.47253
1.45055
1.39194
1.27228
1.39438
1.30891
1.35043
1.25519
1.24542
1.32357
1.44567
1.40171
1.17705
1.3602
1.42613
1.33089
1.37973
1.27473
1.34799
1.31868
1.30403
1.43346
1.1917
1.21856
1.16728
1.25031
1.2674
1.30159
1.18437
1.25031
1.37485
1.30647
1.43834
1.36996
1.17949
1.44078
1.25275
1.3431
1.24298
1.18681
1.21612
1.12821
1.15507
1.21368
1.19902
1.22589
1.28694
1.221
1.14774
1.17705
1.24786
1.24054
1.24298
1.12821
1.15751
1.11111
1.26984
1.10379
1.01832
1.08669
1.10379
1.22344
1.24054
1.13065
1.20147
1.01832
1.08425
1.09158
1.19902
0.974359
0.969475
1.1746
1.08669
1.08425
0.876679
1.04762
1.13553
1.01343
1.13797
1.03053
1.22344
1.15263
1.12821
0.984127
0.986569
1.16972
1.11355
1.19414
1.07692
1.02076
1.11355
1.12821
1.19414
1.12332
1.17949
1.17216
1.16972
1.16484
1.07692
1.12576
0.996337
0.947497
0.920635
0.964591
0.967033
0.913309
1.0696
1.08913
1.04274
1.00611
0.967033
1.116
0.974359
1.12576
1.00366
1.0232
1.01832
0.967033
1.116
0.993895
0.915751
0.984127
0.920635
1.04029
1.01587
1.10867
1.18193
1.02564
1.03297
0.998779
1.12576
0.910867
1.00855
0.925519
0.876679
0.957265
0.849817
0.891331
0.771673
0.903541
0.842491
0.910867
0.976801
0.896215
0.930403
0.888889
0.764347
0.905983
0.766789
1.03541
0.852259
0.866911
0.874237
0.893773
0.927961
0.898657
1.02076
0.854701
0.818071
0.876679
0.913309
1.00855
0.842491
0.869353
0.923077
0.908425
1.02564
0.974359
1.05983
0.879121
0.832723
0.725275
0.869353
0.910867
0.952381
1.00611
0.927961
1.01832
1.01587
0.942613
1.01832
0.898657
0.901099
0.847375
0.788767
0.967033
0.818071
0.945055
0.884005
0.913309
0.942613
0.879121
1.10134
0.945055
1.01587
0.859585
0.913309
0.920635
0.984127
0.886447
0.742369
0.825397
0.813187
0.886447
0.901099
0.700855
0.947497
0.913309
0.910867
0.940171
0.879121
1.02564
0.969475
1.00122
0.886447
0.952381
0.913309
0.874237
0.818071
0.832723
0.986569
0.976801
0.896215
0.927961
0.937729
1.00611
0.898657
0.957265
0.879121
0.849817
0.949939
0.903541
1.07692
0.884005
0.864469
0.835165
0.813187
0.874237
0.764347
0.923077
0.898657
1.07448
0.989011
0.923077
0.886447
0.893773
1.05495
1.08669
0.893773
0.959707
0.974359
1.04518
0.947497
0.945055
1.02564
0.910867
1.06471
1.16239
1.20635
0.981685
0.993895
1.0525
1.07692
1.18437
1.10623
1.08181
0.974359
1.0696
1.13553
1.05983
1.16484
0.998779
1.11111
1.09402
1.1917
1.15995
1.00855
1.12821
1.03785
1.02808
1.0696
0.893773
1.21368
1.09158
1.06716
1.04274
1.10379
1.0232
0.998779
1.10379
0.998779
1.01343
1.02808
1.10134
1.17949
1.12576
1.26252
1.12821
1.07692
1.18193
1.14042
1.22344
1.09646
1.08913
1.04762
0.996337
1.10379
1.12332
1.17705
1.08425
1.19414
1.28205
1.16239
1.19658
1.16239
1.33333
1.21612
1.1453
1.13553
1.05983
1.20147
1.26984
1.34554
1.4359
1.25275
1.1746
1.116
1.34066
1.33822
1.32845
1.15507
1.22344
1.36508
1.24054
1.34799
1.24054
1.29182
1.33089
1.2381
1.38217
1.26252
1.27473
1.12088
1.08425
1.21123
1.26252
1.31136
1.32601
1.43346
1.37729
1.23565
1.38462
1.27473
1.45788
1.38217
1.40904
1.45055
1.37485
1.40659
1.33333
1.47985
1.40415
1.29915
1.47253
1.32845
1.37485
1.35775
1.37729
1.3602
1.53602
1.57021
1.5116
1.52625
1.32845
1.45788
1.50427
1.32601
1.36752
1.30159
1.52869
1.53602
1.47253
1.60928
1.44322
1.49939
1.45788
1.56532
1.57021
1.5873
1.69719
1.55311
1.78266
1.58974
1.56288
1.54579
1.52869
1.60195
1.53602
1.51404
1.46276
1.4823
1.77534
1.60195
1.66056
1.54823
1.62882
1.65324
1.59951
1.76313
1.69963
1.80952
1.77045
1.70208
1.67277
1.55556
1.6801
1.5873
1.59219
1.56532
1.52381
1.61416
1.59707
1.72161
1.59463
1.71673
1.8315
1.71429
1.72161
1.69231
1.74115
1.68254
1.71184
1.78266
1.71184
1.73138
1.75092
1.85348
1.86081
1.71429
1.77778
1.76068
1.84371
1.76068
1.86813
1.81197
1.67766
1.74359
1.64103
1.82173
1.83639
1.7851
1.85104
1.88767
2.03175
1.82662
1.80464
1.81197
1.76801
1.84371
1.88523
1.97558
1.89011
1.94383
1.81441
1.78755
1.9536
1.85836
2.01954
1.88523
1.89255
1.93895
1.81441
1.88767
1.79731
1.81929
1.83639
1.84127
2.04396
2.04151
1.97802
1.79976
1.90232
1.92186
1.84127
1.98535
2.03419
2.13675
1.94383
2.00977
2.01465
1.89255
2.03175
2.00488
2.03175
2
2.10989
2.21734
2.07326
2.07814
2.03907
2.08547
2.21245
2.20513
2.11966
2.00977
1.94872
1.96825
1.92186
2
2.02442
2.03907
2.01221
2.02442
2.13431
2.17582
2.22222
2.04151
2.16606
2.14896
2.14164
2.11477
2.11233
2.16606
2.05617
2.22466
2.11477
2.00244
2.20024
2.09768
2.25885
2.18315
2.23443
2.26862
2.2149
2.20024
2.04151
2.22466
2.28816
2.24176
2.29304
2.16361
2.32479
2.1514
2.30281
2.31013
2.11722
2.25153
2.17094
2.17338
2.18803
2.28816
2.3956
2.18071
2.21001
2.22466
2.32234
2.29792
2.2442
2.23932
2.10745
2.13919
2.08547
2.13675
2.24664
2.21245
2.27595
2.16606
2.31258
2.20757
2.10012
2.22711
2.1221
2.21734
2.21734
2.21001
2.17094
2.26374
2.37607
2.20513
2.14408
2.26374
2.36874
2.26618
2.16361
2.32234
2.07082
2.15385
2.25885
2.22955
2.40049
2.337
2.38339
2.31258
2.28083
2.37118
2.37118
2.44933
2.38095
2.35653
2.27839
2.41758
2.42979
2.2149
2.34188
2.20024
2.3663
2.35165
2.43712
2.44933
2.45665
2.50061
2.34188
2.35897
2.49328
2.49084
2.41514
2.2906
2.48596
2.5177
2.37363
2.47131
2.4884
2.5812
2.3956
2.34676
2.29548
2.36386
2.42002
2.37363
2.50794
2.27595
2.33944
2.53968
2.48596
2.46886
2.45177
2.5641
2.41514
2.35409
2.4591
2.43712
2.53236
2.45665
2.46398
2.49084
2.52747
2.56654
2.39805
2.442
2.32479
2.32723
2.49328
2.47131
2.5641
2.43468
2.50061
2.62759
2.44933
2.46886
2.36874
2.50061
2.45421
2.37363
2.29304
2.42979
2.57875
2.37118
2.5177
2.44689
2.34432
2.47619
2.43223
2.5348
2.36142
2.56899
2.60562
2.51038
2.41758
2.39805
2.61783
2.63736
2.62759
2.53724
2.5348
2.57143
2.4884
2.55189
2.45665
2.49328
2.47131
2.42979
2.63004
2.58364
2.55189
2.50794
2.52259
2.63492
2.45421
2.49084
2.52259
2.63736
2.6398
2.66422
2.61783
2.54945
2.57875
2.4884
2.53236
2.52747
2.57631
2.62271
2.47619
2.56166
2.57631
2.56899
2.5812
2.56654
2.63004
2.41026
2.46154
2.60317
2.48107
2.60317
2.50549
2.60562
2.61538
2.54701
2.67155
2.63736
2.50061
2.37118
2.48107
2.47619
2.50061
2.59096
2.44689
2.61783
2.53236
2.51282
2.43468
2.42491
2.60806
2.59341
2.57631
2.56654
2.52259
2.58608
2.55678
2.56166
2.59829
2.72527
2.80098
2.70085
2.58852
2.4591
2.54701
2.59341
2.63736
2.54212
2.53968
2.66667
2.61294
2.56166
2.4884
2.5641
2.67643
2.5812
2.68864
2.49817
2.52259
2.64957
2.50794
2.6105
2.48107
2.5641
2.44444
2.52991
2.74237
2.68376
2.81563
2.61538
2.53236
2.63004
2.5177
2.55922
2.50549
2.67399
2.66422
2.62271
2.72527
2.61294
2.76435
2.58852
2.70085
2.66178
2.66911
2.67399
2.57631
2.68376
2.58608
2.67643
2.54945
2.54701
2.75946
2.58608
2.64469
2.54945
2.50061
2.61783
2.62515
2.65201
2.41026
2.45421
2.42247
2.3663
2.50061
2.5348
2.66911
2.54701
2.57631
2.59341
2.56654
2.68376
2.51526
2.54701
2.50794
2.59829
2.63492
2.49328
2.72772
2.5812
2.62027
2.55678
2.68376
2.6862
2.60073
2.72527
2.6569
2.69597
2.74969
2.66911
2.72283
2.55678
2.57875
2.53724
2.64469
2.61294
2.442
2.50549
2.41758
2.65201
2.70818
2.6569
2.68132
2.55189
2.6105
2.51282
2.53968
2.62759
2.47619
2.52015
2.59096
2.52259
2.36142
2.38339
2.55433
2.33455
2.43468
2.54701
2.62515
2.53724
2.55433
2.49328
2.3199
2.45665
2.50061
2.4884
2.60806
2.32234
2.43956
2.44444
2.46886
2.4884
2.54212
2.54212
2.3956
2.63248
2.48596
2.49573
2.5177
2.44444
2.5348
2.37118
2.4591
2.37363
2.41758
2.47863
2.45665
2.64225
2.51282
2.51038
2.53236
2.52015
2.57631
2.55922
2.65201
2.52503
2.54457
2.54457
2.49817
2.57387
2.38584
2.49084
2.45665
2.40293
2.40781
2.40537
2.38584
2.35653
2.38828
2.38339
2.41758
2.42247
2.39316
2.3956
2.42247
2.43223
2.54457
2.43712
2.59341
2.49573
2.49817
2.45177
2.45177
2.4884
2.45665
2.46886
2.28816
2.51282
2.42491
2.32479
2.41026
2.37118
2.51526
2.48596
2.40293
2.32234
2.37851
2.55189
2.37363
2.42491
2.39805
2.38095
2.36386
2.30037
2.38339
2.30281
2.35653
2.35897
2.40781
2.45177
2.33211
2.50305
2.3956
2.36142
2.32479
2.27106
2.34676
2.23932
2.34188
2.34676
2.22466
2.37118
2.26618
2.38584
2.29548
2.24664
2.1978
2.20513
2.37363
2.34676
2.44444
2.40293
2.30281
2.40781
2.27106
2.34432
2.19048
2.26862
2.32479
2.35165
2.38828
2.28083
2.36386
2.23932
2.28083
2.33944
2.27595
2.38339
2.28327
2.43468
2.37607
2.25885
2.33944
2.19048
2.18071
2.11477
2.2906
2.27595
2.14408
2.28571
2.337
2.40537
2.21245
2.10989
2.2149
2.12943
2.17338
2.09035
2.20269
2.1685
2.16361
2.27595
2.1685
2.20024
2.18315
2.13675
2.20269
2.16361
2.25641
2.10256
2.1685
2.27106
2.2149
2.12943
2.07082
2.12698
1.97314
2.01954
2.10256
2.15385
2.08791
2.12454
2.22711
2.23932
2.19048
2.17094
2
2.06105
2.05861
2.22466
2.10256
2.13187
2.20024
2.0757
2.22466
2.09035
2.20269
2.17338
2.08059
2.06349
2.01954
2.16606
2.08547
1.96581
1.97314
1.86569
2.10012
1.92674
2.03907
2.0293
1.90965
1.98779
2.04884
2.10012
1.93651
1.88278
1.94383
1.98779
2.02198
1.99023
2.07814
2.04151
1.98291
2.10256
2.09768
2.16606
1.95604
1.83883
1.84371
1.92186
1.97314
1.94872
2.0293
1.97314
1.97558
1.99267
1.91209
1.99756
1.91941
1.96581
1.89988
1.84615
2.03663
1.84615
1.93651
1.86081
1.87057
1.7851
1.80464
1.88767
1.73871
1.87057
1.76068
1.75824
1.8315
1.86569
1.92918
1.79243
1.87057
1.83639
1.81929
1.86569
1.75336
1.84371
1.77045
1.86569
1.86325
1.75824
1.89744
1.88278
1.94383
1.81685
1.83639
1.74359
1.67766
1.76557
1.73382
1.83394
1.85592
1.97558
1.93162
1.86325
1.96825
1.88767
1.86813
1.75092
1.7094
1.81441
1.66545
1.8486
1.7851
1.76557
1.54579
1.54579
1.70696
1.71429
1.84127
1.73138
1.60195
1.59463
1.52381
1.66545
1.60928
1.66545
1.61416
1.59951
1.69963
1.69963
1.79976
1.70696
1.91453
1.80952
1.68498
1.71184
1.71184
1.71917
1.66056
1.59463
1.66789
1.62637
1.61172
1.57021
1.63614
1.67521
1.53846
1.79731
1.71673
1.67277
1.51893
1.54579
1.58974
1.55556
1.59463
1.53114
1.57998
1.51648
1.52869
1.558
1.45543
1.5116
1.45299
1.49206
1.57753
1.56532
1.66056
1.49939
1.49451
1.52869
1.54579
1.58486
1.60684
1.60684
1.43101
1.57021
1.60195
1.5116
1.50427
1.3895
1.47497
1.49451
1.55311
1.47497
1.40415
1.51404
1.5409
1.46764
1.40171
1.38217
1.42857
1.31868
1.45055
1.37485
1.34799
1.4652
1.47253
1.51404
1.46764
1.58974
1.45299
1.37973
1.29182
1.32357
1.50672
1.4188
1.40171
1.39927
1.33333
1.35531
1.30891
1.49206
1.4359
1.54823
1.3138
1.31136
1.49939
1.24786
1.42613
1.48718
1.52137
1.37241
1.32112
1.45055
1.29426
1.35775
1.2967
1.36508
1.43834
1.32845
1.37973
1.28449
1.22344
1.3138
1.23565
1.33822
1.33822
1.3602
1.15995
1.27473
1.37729
1.38706
1.3138
1.13309
1.26252
1.34554
1.42857
1.38706
1.20147
1.40415
1.34554
1.4359
1.39194
1.3138
1.32357
1.26496
1.38217
1.21123
1.2967
1.4652
1.40171
1.45788
1.23565
1.20147
1.34554
1.27717
1.23321
1.22589
1.23321
1.2967
1.20635
1.12821
1.1917
1.30159
1.14042
1.13553
1.18926
1.30403
1.28205
1.25763
1.32845
1.13553
1.16972
1.20635
1.19902
1.08669
1.00122
1.15018
1.10623
1.19902
1.22589
1.04029
1.2381
1.25275
1.27961
1.20391
1.18193
1.20879
1.18681
1.20879
1.04274
1.22589
1.12821
1.26984
1.221
1.04274
1.17216
1.22833
1.15018
1.08669
1.11844
1.16972
1.0696
1.21612
1.20391
1.23321
1.16972
1.04029
1.16728
1.04518
1.13065
1.10867
1.07448
1.19902
1.01343
1.02076
1.07692
0.976801
0.940171
0.876679
1.10134
1.19658
1.13797
1.08425
1.10867
1.06227
1.0525
1.04274
1.00122
0.996337
0.932845
1.08669
1.12576
1.03053
1.10867
1.0696
1.12088
1.0989
0.964591
1.16728
1.0525
1.12332
1.01099
1.09402
0.925519
0.908425
1.07448
0.989011
1.02808
1.06471
1.01343
1.00366
1.0696
1.23321
1.11355
1.13797
1.10134
0.986569
1.08425
1.01099
1.14774
1.08913
1.05495
1.07204
1.00611
1.06716
0.981685
1.14286
1.21123
1.06716
1.15995
1.05983
1.13553
1.05495
0.984127
1.08913
0.891331
1.04029
1.04762
1.05495
0.947497
0.896215
0.986569
1.03785
1.16484
0.920635
1.05006
1.05495
1.0525
1.02076
0.849817
0.930403
0.913309
1.01099
0.964591
1.08669
1.10867
1.06227
1.19414
1.116
1.03297
1.14774
1.00122
0.993895
0.954823
1.07204
1.05739
1.03297
1.11111
0.969475
1.08425
1.00611
0.964591
0.989011
1.00122
1.06227
0.962149
1.08181
1.04029
0.927961
0.949939
0.974359
1.12576
0.998779
0.937729
0.998779
1.07448
1.08181
0.891331
1.10134
0.964591
0.998779
1.0525
1.00855
1.13065
1.03541
0.952381
0.962149
0.862027
1.09158
1.02564
0.947497
0.827839
0.898657
0.976801
0.923077
1.08181
0.849817
1.02808
1.08425
1.05006
1.12332
1.06227
1.12332
1.17705
1.14774
1.08669
1.07692
1.08181
1.00122
1.25275
1.12576
1.09402
1.02808
1.04518
1.10134
1.07204
1.18926
1.08181
1.02076
0.996337
0.986569
1.06227
0.915751
1.04518
0.993895
0.952381
1.05495
1.10134
1.17949
1.03297
1.05495
1.08913
1.14774
1.03053
1.11111
1.08425
0.991453
1.04762
1.06716
0.947497
0.935287
0.876679
1.04762
1.01099
1.10867
1.16484
1.0696
0.986569
0.996337
1.04274
1.03785
0.932845
1.10379
0.903541
1.01587
1.00855
1.01587
1.15751
1.05006
1.12088
1.02564
1.01099
0.989011
0.930403
1.00855
1.00611
1.13309
1.12332
1.0989
1.09158
1.02076
1.17949
1.04518
1.10379
1.00122
1.07937
1.16728
1.09158
1.29182
1.116
1.23077
1.17216
1.20147
1.15751
1.04518
1.116
1.07692
1.08425
1.08913
0.974359
1.00855
1.08913
1.18681
1.1746
1.05983
1.15263
1.15018
1.18926
1.06716
1.27228
1.15995
1.08181
1.07692
1.00366
1.116
1.04518
1.18681
1.16972
1.04518
1.20635
1.00611
1.1746
1.18681
1.18437
1.19902
1.0525
1.21612
1.1453
1.10623
1.07937
1.06471
1.13065
1.00855
1.12821
1.00611
1.08669
1.12576
0.979243
1.13553
1.08913
1.07937
1.14774
1.15263
1.14286
1.04518
1.22344
1.15995
1.23077
1.221
1.25763
1.26496
1.19658
1.28205
1.1746
1.20391
1.15751
1.1453
1.24298
0.903541
1.08913
1.23321
1.18926
1.29182
1.12576
1.21123
1.06716
1.116
1.14286
1.10379
1.24298
1.13309
1.16728
1.15263
1.20635
1.24542
1.20147
1.28449
1.12821
1.1917
1.16728
1.1453
1.26007
1.10379
1.28938
1.22344
1.21123
1.23077
1.03297
1.17705
1.09646
1.25275
1.18926
1.12576
1.19414
1.08669
1.12088
1.20391
1.35775
1.38462
1.20391
1.31868
1.21123
1.27228
1.12821
1.13309
1.30891
1.30403
1.35287
1.26496
1.31136
1.20635
1.27961
1.30891
1.10623
1.15751
1.26252
1.37973
1.30403
1.2674
1.24054
1.10134
1.1453
1.22833
1.26496
1.24786
1.28449
1.36508
1.29426
1.32601
1.15263
1.16239
1.36752
1.26984
1.35775
1.33089
1.35775
1.2967
1.16484
1.28449
1.11355
1.2381
1.34554
1.26984
1.28694
1.16484
1.25275
1.09646
1.22344
1.23077
1.0989
1.2674
1.23077
1.28938
1.30159
1.2674
1.32357
1.18926
1.22589
1.14286
1.27717
1.15263
1.24298
1.36264
1.31624
1.45299
1.39683
1.34554
1.20391
1.11111
1.26984
1.15751
1.29915
1.29915
1.35043
1.3431
1.27473
1.44322
1.18681
1.25763
1.2674
1.24298
1.35531
1.36264
1.36996
1.23321
1.24054
1.221
1.20879
1.32601
1.26496
1.26496
1.1746
1.31136
1.27961
1.21123
1.36752
1.28449
1.37485
1.36508
1.29426
1.39194
1.15507
1.2967
1.17216
1.21123
1.13797
1.12088
1.28449
1.28449
1.3895
1.28205
1.31136
1.28694
1.15995
1.34066
1.24542
1.33089
1.32845
1.24542
1.3138
1.28205
1.26496
1.21368
1.28205
1.35775
1.32357
1.33578
1.2381
1.3138
1.24054
1.25763
1.27473
1.26984
1.40171
1.2967
1.2967
1.33578
1.33089
1.34554
1.19902
1.36264
1.32601
1.22344
1.26984
1.20391
1.42125
1.44322
1.38462
1.1453
1.17705
1.31624
1.22589
1.42613
1.44078
1.3895
1.26984
1.33333
1.33089
1.35287
1.54823
1.30891
1.38217
1.36752
1.28694
1.35043
1.35043
1.32601
1.20635
1.26496
1.27717
1.16728
1.36508
1.2967
1.28938
1.36996
1.22589
1.24786
1.29426
1.26252
1.16484
1.31868
1.32357
1.21123
1.26252
1.21612
1.27961
1.2967
1.2967
1.4188
1.27228
1.29915
1.25031
1.31136
1.20635
1.23321
1.46276
1.33333
1.33089
1.19658
1.27228
1.33578
1.3431
1.31624
1.15995
1.30647
1.27961
1.2381
1.33333
1.34799
1.43834
1.22589
1.33578
1.25763
1.20391
1.28449
1.21856
1.2967
1.22589
1.26496
1.36752
1.34554
1.37241
1.24298
1.33578
1.22833
1.3138
1.35775
1.17949
1.24054
1.221
1.26496
1.21368
1.20635
1.32601
1.37973
1.47741
1.33822
1.29426
1.28938
1.1746
1.25519
1.21368
1.25763
1.35043
1.30647
1.3138
1.22833
1.26007
1.12821
1.18193
1.16484
1.1746
1.26252
1.23077
1.30159
1.19414
1.11844
1.22589
1.14042
1.24542
1.0989
1.26252
1.24298
1.1917
1.21612
1.05739
1.24298
1.15995
1.06227
1.0696
1.00366
1.221
1.15263
1.08669
1.08181
1.00366
1.20635
1.23565
1.30159
1.10623
1.23321
1.29182
1.28694
1.30647
1.06471
1.16239
1.14774
1.116
1.0525
1.06471
1.20147
1.15995
1.20635
1.17705
1.21368
1.3431
1.16972
1.22833
1.21123
1.18193
1.1746
1.08425
1.21856
1.21612
1.20391
1.13065
1.03053
1.12821
1.01587
1.17949
1.11355
1.13553
1.16484
1.26252
1.21612
1.08425
1.05495
1.02808
1.02076
1.17216
1.10134
1.09402
1.14286
1.25763
1.14774
1.09646
1.21368
1.08181
1.24786
1.15263
1.27717
1.36264
1.22833
1.24542
1.20391
1.20391
1.08913
1.08669
1.17949
1.1917
1.24054
1.11111
1.01099
1.14042
1.22833
1.22833
1.10867
1.08913
0.984127
1.05983
1.10134
1.06227
1.19902
1.12332
1.17705
1.20391
1.12576
1.08913
1.14042
1.05495
0.905983
1.12576
1.20147
1.12332
1.116
1.01832
1.03785
1.00366
1.09158
1.00611
1.03053
1.08913
1.05006
1.18926
1.01832
0.918193
1.08425
1.00611
1.04274
1.1917
1.32845
1.17705
1.09402
1.04274
1.08669
1.10379
0.935287
1.08669
0.991453
0.967033
1.12576
0.971917
0.962149
1.06227
1.03785
0.996337
0.791209
0.947497
0.998779
1.0525
1.10379
1.00855
1.08181
1.00366
1.0989
1.04274
0.930403
0.942613
0.935287
1.116
0.976801
0.952381
1.00611
1.12088
1.2381
1.03785
0.901099
0.808303
0.981685
0.969475
0.876679
1.08425
0.957265
0.986569
0.935287
1.01099
1.10867
0.854701
0.884005
0.884005
0.869353
0.918193
0.979243
0.952381
0.815629
1.03297
1.07448
1.05983
1.04518
0.942613
0.910867
0.835165
0.915751
0.866911
0.866911
0.967033
0.981685
0.984127
0.957265
0.891331
0.964591
0.932845
0.952381
0.876679
0.835165
0.915751
0.979243
0.991453
0.881563
0.886447
0.796093
0.876679
0.913309
0.954823
0.925519
0.879121
1.08425
0.942613
0.891331
0.852259
0.752137
0.866911
0.842491
0.859585
0.896215
0.854701
0.884005
0.832723
0.800977
0.837607
0.825397
0.803419
0.869353
1.03785
0.942613
0.849817
0.827839
0.920635
1.06471
0.937729
0.993895
0.781441
0.764347
0.722833
0.749695
0.840049
0.852259
0.898657
0.666667
0.720391
0.796093
0.888889
0.796093
0.786325
0.776557
0.722833
0.871795
0.825397
0.761905
0.913309
0.864469
0.886447
0.681319
0.681319
0.752137
0.656899
0.849817
0.698413
0.761905
0.739927
0.666667
0.720391
0.771673
0.918193
0.825397
0.871795
0.905983
0.830281
0.708181
0.634921
0.774115
0.783883
0.830281
0.915751
0.810745
0.693529
0.617827
0.781441
0.781441
0.622711
0.747253
0.730159
0.735043
0.598291
0.620269
0.749695
0.625153
0.800977
0.637363
0.693529
0.791209
0.835165
0.791209
0.703297
0.769231
0.630037
0.708181
0.644689
0.605617
0.725275
0.608059
0.769231
0.642247
0.637363
0.639805
0.544567
0.713065
0.686203
0.739927
0.598291
0.637363
0.637363
0.571429
0.698413
0.625153
0.739927
0.749695
0.727717
0.862027
0.722833
0.583639
0.600733
0.581197
0.561661
0.583639
0.681319
0.637363
0.556777
0.578755
0.568987
0.722833
0.637363
0.693529
0.620269
0.586081
0.537241
0.473748
0.647131
0.466422
0.503053
0.495726
0.529915
0.561661
0.417582
0.549451
0.478632
0.549451
0.503053
0.454212
0.534799
0.610501
0.710623
0.573871
0.605617
0.547009
0.485958
0.632479
0.483516
0.683761
0.578755
0.581197
0.544567
0.461538
0.525031
0.512821
0.564103
0.481074
0.449328
0.556777
0.510379
0.564103
0.371184
0.554335
0.483516
0.503053
0.561661
0.40293
0.461538
0.485958
0.527473
0.4884
0.361416
0.544567
0.263736
0.322344
0.512821
0.446886
0.437118
0.393162
0.500611
0.500611
0.483516
0.507937
0.495726
0.478632
0.40293
0.544567
0.483516
0.466422
0.512821
0.376068
0.405372
0.34188
0.468864
0.429792
0.30525
0.495726
0.4884
0.468864
0.327228
0.371184
0.437118
0.376068
0.4884
0.393162
0.43956
0.400488
0.512821
0.505495
0.41514
0.417582
0.261294
0.346764
0.339438
0.39072
0.393162
0.32967
0.41514
0.295482
0.405372
0.46398
0.373626
0.478632
0.456654
0.473748
0.456654
0.346764
0.346764
0.35409
0.407814
0.327228
0.42735
0.410256
0.339438
0.520147
0.373626
0.356532
0.37851
0.424908
0.288156
0.295482
0.380952
0.3663
0.400488
0.34188
0.300366
0.40293
0.307692
0.383394
0.271062
0.40293
0.358974
0.407814
0.466422
0.212454
0.288156
0.32967
0.37851
0.32967
0.412698
0.322344
0.212454
0.31746
0.300366
0.446886
0.456654
0.334554
0.332112
0.300366
0.344322
0.356532
0.40293
0.432234
0.46398
0.373626
0.373626
0.31746
0.373626
0.349206
0.432234
0.361416
0.32967
0.373626
0.253968
0.30525
0.332112
0.324786
0.356532
0.422466
0.346764
0.3663
0.35409
0.185592
0.290598
0.388278
0.376068
0.307692
0.229548
0.346764
0.358974
0.339438
0.383394
0.363858
0.380952
0.288156
0.275946
0.310134
0.344322
0.346764
0.380952
0.332112
0.319902
0.32967
0.241758
0.217338
0.214896
0.224664
0.278388
0.307692
0.334554
0.258852
0.295482
0.346764
0.376068
0.3663
0.229548
0.307692
0.249084
0.295482
0.332112
0.307692
0.385836
0.278388
0.30525
0.322344
0.29304
0.371184
0.376068
0.368742
0.3663
0.334554
0.312576
0.332112
0.327228
0.34188
0.405372
0.429792
0.315018
0.29304
0.295482
0.322344
0.30525
0.493284
0.417582
0.302808
0.310134
0.39072
0.380952
0.324786
0.43956
0.241758
0.361416
0.376068
0.334554
0.275946
0.212454
0.344322
0.351648
0.349206
0.503053
0.263736
0.273504
0.312576
0.327228
0.319902
0.376068
0.380952
0.315018
0.327228
0.412698
0.383394
0.446886
0.295482
0.417582
0.522589
0.395604
0.32967
0.205128
0.312576
0.297924
0.28083
0.393162
0.43956
0.459096
0.385836
0.412698
0.466422
0.473748
0.400488
0.295482
0.322344
0.32967
0.454212
0.371184
0.39072
0.346764
0.398046
0.43956
0.368742
0.473748
0.407814
0.471306
0.446886
0.324786
0.41514
0.47619
0.444444
0.336996
0.37851
0.351648
0.400488
0.361416
0.398046
0.4884
0.432234
0.339438
0.344322
0.410256
0.393162
0.344322
0.376068
0.493284
0.39072
0.583639
0.47619
0.481074
0.368742
0.442002
0.542125
0.432234
0.41514
0.432234
0.515263
0.468864
0.454212
0.478632
0.346764
0.498168
0.446886
0.393162
0.405372
0.351648
0.454212
0.420024
0.527473
0.424908
0.608059
0.605617
0.437118
0.586081
0.393162
0.395604
0.424908
0.417582
0.500611
0.459096
0.454212
0.503053
0.610501
0.647131
0.566545
0.593407
0.547009
0.578755
0.507937
0.481074
0.693529
0.554335
0.41514
0.398046
0.608059
0.559219
0.456654
0.556777
0.500611
0.600733
0.581197
0.595849
0.559219
0.627595
0.583639
0.495726
0.605617
0.4884
0.454212
0.510379
0.39072
0.561661
0.593407
0.495726
0.556777
0.573871
0.583639
0.500611
0.537241
0.617827
0.547009
0.564103
0.659341
0.544567
0.346764
0.481074
0.478632
0.593407
0.556777
0.500611
0.632479
0.573871
0.649573
0.742369
0.559219
0.615385
0.564103
0.593407
0.559219
0.478632
0.634921
0.605617
0.791209
0.647131
0.608059
0.590965
0.512821
0.490842
0.485958
0.539683
0.652015
0.735043
0.717949
0.666667
0.708181
0.681319
0.703297
0.603175
0.542125
0.576313
0.520147
0.615385
0.573871
0.656899
0.654457
0.512821
0.554335
0.559219
0.681319
0.608059
0.520147
0.532357
0.534799
0.610501
0.642247
0.717949
0.725275
0.573871
0.632479
0.534799
0.686203
0.612943
0.715507
0.754579
0.612943
0.725275
0.652015
0.637363
0.588523
0.715507
0.610501
0.547009
0.752137
0.759463
0.661783
0.627595
0.698413
0.774115
0.630037
0.676435
0.710623
0.744811
0.678877
0.639805
0.766789
0.654457
0.800977
0.840049
0.771673
0.610501
0.493284
0.632479
0.737485
0.644689
0.642247
0.612943
0.886447
0.710623
0.632479
0.661783
0.783883
0.700855
0.713065
0.754579
0.720391
0.720391
0.625153
0.683761
0.639805
0.627595
0.742369
0.676435
0.713065
0.678877
0.708181
0.761905
0.630037
0.752137
0.632479
0.625153
0.742369
0.752137
0.808303
0.659341
0.764347
0.764347
0.742369
0.810745
0.771673
0.893773
0.700855
0.713065
0.703297
0.527473
0.732601
0.664225
0.830281
0.778999
0.813187
0.703297
0.556777
0.783883
0.759463
0.737485
0.774115
0.778999
0.754579
0.700855
0.876679
0.739927
0.769231
0.705739
0.691087
0.732601
0.571429
0.698413
0.759463
0.754579
0.717949
0.671551
0.717949
0.644689
0.730159
0.788767
0.764347
0.822955
0.769231
0.788767
0.774115
0.869353
0.644689
0.595849
0.798535
0.681319
0.896215
0.771673
0.693529
0.717949
0.566545
0.810745
0.737485
0.691087
0.695971
0.844933
0.849817
0.722833
0.778999
0.788767
0.859585
0.781441
0.637363
0.673993
0.703297
0.844933
0.720391
0.610501
0.747253
0.710623
0.815629
0.698413
0.749695
0.788767
0.803419
0.859585
0.693529
0.700855
0.759463
0.764347
0.793651
0.713065
0.803419
0.737485
0.803419
0.754579
0.786325
0.932845
0.747253
0.832723
0.822955
0.791209
0.810745
0.781441
0.857143
0.693529
0.700855
0.612943
0.715507
0.864469
0.722833
0.840049
0.717949
0.688645
0.757021
0.693529
0.825397
0.695971
0.781441
0.722833
0.822955
0.840049
0.742369
0.783883
0.737485
0.813187
0.847375
0.791209
0.844933
0.703297
0.884005
0.803419
0.688645
0.634921
0.735043
0.854701
0.652015
0.705739
0.752137
0.739927
0.730159
0.766789
0.969475
0.691087
0.793651
0.730159
0.742369
0.757021
0.637363
0.769231
0.681319
0.752137
0.796093
0.727717
0.949939
0.840049
0.864469
0.676435
0.720391
0.835165
0.754579
0.859585
0.739927
0.783883
0.708181
0.683761
0.859585
0.847375
0.822955
0.656899
0.764347
0.776557
0.617827
0.766789
0.713065
0.842491
0.847375
0.837607
0.896215
0.769231
0.884005
0.842491
0.964591
0.798535
0.788767
0.879121
0.754579
0.808303
0.803419
0.781441
0.759463
0.681319
0.774115
0.681319
0.815629
0.752137
0.810745
0.808303
0.744811
0.793651
0.730159
0.739927
0.732601
0.749695
0.959707
0.830281
0.923077
0.857143
0.739927
0.822955
0.778999
0.822955
0.617827
0.759463
0.732601
0.705739
0.769231
0.656899
0.859585
0.771673
0.893773
0.749695
0.710623
0.727717
0.727717
0.844933
0.757021
0.881563
0.884005
0.815629
0.857143
0.598291
0.761905
0.859585
0.905983
0.854701
0.798535
0.808303
0.656899
0.676435
0.644689
0.730159
0.835165
0.815629
0.844933
0.781441
0.730159
0.691087
0.683761
0.776557
0.752137
0.852259
0.705739
0.788767
0.869353
0.810745
0.822955
0.676435
0.752137
0.703297
0.598291
0.742369
0.617827
0.737485
0.749695
0.752137
0.808303
0.837607
0.898657
0.703297
0.656899
0.605617
0.615385
0.764347
0.647131
0.815629
0.742369
0.849817
0.898657
0.786325
0.908425
0.698413
0.771673
0.717949
0.786325
0.803419
0.764347
0.730159
0.547009
0.673993
0.647131
0.571429
0.776557
0.715507
0.610501
0.517705
0.556777
0.659341
0.627595
0.739927
0.691087
0.747253
0.720391
0.725275
0.664225
0.520147
0.47619
0.573871
0.625153
0.698413
0.647131
0.620269
0.659341
0.703297
0.669109
0.681319
0.686203
0.688645
0.742369
0.727717
0.752137
0.788767
0.761905
0.810745
0.686203
0.830281
0.666667
0.659341
0.766789
0.715507
0.669109
0.671551
0.783883
0.703297
0.578755
0.739927
0.742369
0.837607
0.717949
0.830281
0.695971
0.620269
0.625153
0.568987
0.693529
0.639805
0.617827
0.681319
0.720391
0.708181
0.573871
0.622711
0.556777
0.678877
0.695971
0.534799
0.759463
0.710623
0.686203
0.744811
0.678877
0.796093
0.647131
0.605617
0.686203
0.713065
0.752137
0.586081
0.717949
0.676435
0.688645
0.705739
0.644689
0.866911
0.695971
0.695971
0.595849
0.666667
0.593407
0.691087
0.810745
0.764347
0.730159
0.676435
0.634921
0.727717
0.703297
0.791209
0.571429
0.695971
0.730159
0.739927
0.720391
0.598291
0.673993
0.515263
0.588523
0.615385
0.542125
0.742369
0.627595
0.649573
0.608059
0.781441
0.759463
0.520147
0.717949
0.654457
0.730159
0.661783
0.568987
0.695971
0.473748
0.615385
0.559219
0.529915
0.581197
0.637363
0.744811
0.632479
0.686203
0.634921
0.583639
0.549451
0.500611
0.622711
0.634921
0.578755
0.603175
0.625153
0.547009
0.515263
0.578755
0.561661
0.566545
0.561661
0.490842
0.610501
0.634921
0.654457
0.590965
0.649573
0.705739
0.503053
0.503053
0.368742
0.498168
0.583639
0.529915
0.571429
0.466422
0.566545
0.556777
0.568987
0.588523
0.595849
0.654457
0.593407
0.634921
0.583639
0.522589
0.659341
0.510379
0.683761
0.471306
0.4884
0.698413
0.630037
0.544567
0.47619
0.634921
0.485958
0.603175
0.664225
0.459096
0.537241
0.434676
0.46398
0.490842
0.505495
0.639805
0.544567
0.630037
0.561661
0.581197
0.522589
0.525031
0.622711
0.45177
0.578755
0.595849
0.581197
0.527473
0.478632
0.612943
0.593407
0.600733
0.549451
0.620269
0.573871
0.549451
0.483516
0.442002
0.512821
0.652015
0.500611
0.549451
0.505495
0.554335
0.576313
0.517705
0.527473
0.442002
0.459096
0.471306
0.549451
0.537241
0.412698
0.532357
0.527473
0.590965
0.529915
0.442002
0.485958
0.371184
0.539683
0.544567
0.568987
0.490842
0.432234
0.507937
0.429792
0.522589
0.483516
0.542125
0.590965
0.578755
0.537241
0.456654
0.529915
0.45177
0.45177
0.595849
0.495726
0.444444
0.456654
0.544567
0.437118
0.583639
0.539683
0.449328
0.510379
0.512821
0.520147
0.46398
0.547009
0.532357
0.429792
0.442002
0.417582
0.459096
0.478632
0.544567
0.612943
0.395604
0.561661
0.549451
0.39072
0.517705
0.410256
0.429792
0.273504
0.47619
0.398046
0.368742
0.41514
0.319902
0.449328
0.424908
0.344322
0.529915
0.485958
0.422466
0.398046
0.542125
0.603175
0.532357
0.617827
0.639805
0.568987
0.3663
0.35409
0.422466
0.532357
0.537241
0.407814
0.534799
0.515263
0.41514
0.398046
0.344322
0.400488
0.400488
0.422466
0.349206
0.45177
0.551893
0.551893
0.664225
0.485958
0.471306
0.512821
0.405372
0.554335
0.566545
0.547009
0.41514
0.407814
0.444444
0.40293
0.571429
0.456654
0.539683
0.539683
0.385836
0.395604
0.446886
0.505495
0.398046
0.515263
0.527473
0.4884
0.481074
0.461538
0.576313
0.498168
0.556777
0.610501
0.556777
0.515263
0.373626
0.393162
0.422466
0.334554
0.45177
0.368742
0.478632
0.481074
0.46398
0.388278
0.334554
0.461538
0.485958
0.547009
0.468864
0.405372
0.639805
0.520147
0.556777
0.429792
0.432234
0.334554
0.417582
0.466422
0.424908
0.4884
0.544567
0.512821
0.544567
0.481074
0.459096
0.422466
0.398046
0.412698
0.485958
0.583639
0.517705
0.598291
0.446886
0.400488
0.40293
0.34188
0.393162
0.363858
0.532357
0.376068
0.429792
0.490842
0.363858
0.368742
0.273504
0.507937
0.454212
0.490842
0.412698
0.459096
0.588523
0.454212
0.490842
0.40293
0.410256
0.398046
0.37851
0.456654
0.42735
0.468864
0.437118
0.373626
0.466422
0.495726
0.547009
0.554335
0.471306
0.42735
0.266178
0.315018
0.266178
0.336996
0.507937
0.46398
0.42735
0.32967
0.420024
0.47619
0.520147
0.434676
0.349206
0.473748
0.446886
0.473748
0.351648
0.471306
0.576313
0.42735
0.410256
0.31746
0.503053
0.412698
0.437118
0.481074
0.332112
0.556777
0.442002
0.483516
0.454212
0.517705
0.695971
0.691087
0.588523
0.503053
0.444444
0.473748
0.422466
0.578755
0.407814
0.46398
0.515263
0.537241
0.503053
0.608059
0.507937
0.449328
0.568987
0.527473
0.454212
0.507937
0.383394
0.471306
0.490842
0.588523
0.515263
0.407814
0.446886
0.534799
0.551893
0.47619
0.407814
0.590965
0.515263
0.551893
0.459096
0.42735
0.529915
0.420024
0.544567
0.517705
0.559219
0.544567
0.564103
0.561661
0.444444
0.554335
0.483516
0.556777
0.634921
0.608059
0.586081
0.500611
0.617827
0.529915
0.559219
0.564103
0.542125
0.568987
0.429792
0.547009
0.583639
0.588523
0.566545
0.493284
0.498168
0.517705
0.664225
0.634921
0.554335
0.581197
0.478632
0.520147
0.376068
0.622711
0.644689
0.490842
0.652015
0.483516
0.637363
0.454212
0.481074
0.637363
0.510379
0.512821
0.525031
0.561661
0.559219
0.517705
0.539683
0.456654
0.542125
0.520147
0.551893
0.420024
0.461538
0.446886
0.444444
0.539683
0.473748
0.544567
0.598291
0.603175
0.664225
0.561661
0.547009
0.529915
0.573871
0.564103
0.495726
0.615385
0.586081
0.608059
0.708181
0.529915
0.527473
0.527473
0.735043
0.708181
0.698413
0.630037
0.444444
0.564103
0.539683
0.605617
0.571429
0.556777
0.681319
0.630037
0.498168
0.485958
0.471306
0.542125
0.527473
0.542125
0.41514
0.444444
0.595849
0.512821
0.547009
0.527473
0.703297
0.590965
0.527473
0.578755
0.473748
0.630037
0.547009
0.617827
0.556777
0.564103
0.632479
0.522589
0.644689
0.556777
0.534799
0.612943
0.588523
0.659341
0.527473
0.600733
0.45177
0.656899
0.625153
0.537241
0.644689
0.600733
0.761905
0.725275
0.612943
0.537241
0.456654
0.605617
0.593407
0.725275
0.583639
0.564103
0.615385
0.515263
0.622711
0.542125
0.683761
0.698413
0.710623
0.769231
0.505495
0.573871
0.556777
0.471306
0.454212
0.542125
0.661783
0.551893
0.573871
0.578755
0.566545
0.656899
0.659341
0.759463
0.632479
0.661783
0.671551
0.586081
0.639805
0.603175
0.632479
0.456654
0.549451
0.700855
0.571429
0.659341
0.568987
0.671551
0.788767
0.800977
0.673993
0.547009
0.622711
0.630037
0.744811
0.705739
0.669109
0.749695
0.608059
0.539683
0.593407
0.527473
0.610501
0.598291
0.649573
0.559219
0.656899
0.749695
0.676435
0.681319
0.642247
0.698413
0.771673
0.652015
0.566545
0.517705
0.717949
0.490842
0.615385
0.671551
0.656899
0.642247
0.517705
0.700855
0.598291
0.637363
0.654457
0.571429
0.830281
0.722833
0.671551
0.630037
0.673993
0.713065
0.593407
0.683761
0.478632
0.522589
0.510379
0.581197
0.683761
0.561661
0.805861
0.600733
0.661783
0.722833
0.703297
0.732601
0.595849
0.625153
0.593407
0.615385
0.764347
0.710623
0.827839
0.715507
0.678877
0.732601
0.698413
0.708181
0.632479
0.776557
0.730159
0.796093
0.739927
0.630037
0.854701
0.625153
0.761905
0.796093
0.737485
0.862027
0.669109
0.661783
0.610501
0.693529
0.757021
0.605617
0.698413
0.605617
0.595849
0.695971
0.776557
0.715507
0.661783
0.693529
0.647131
0.769231
0.683761
0.598291
0.825397
0.893773
0.844933
0.698413
0.664225
0.634921
0.669109
0.918193
0.730159
0.717949
0.722833
0.722833
0.761905
0.732601
0.632479
0.639805
0.742369
0.744811
0.749695
0.737485
0.581197
0.583639
0.510379
0.644689
0.788767
0.620269
0.737485
0.654457
0.673993
0.644689
0.649573
0.703297
0.603175
0.820513
0.683761
0.791209
0.730159
0.625153
0.715507
0.664225
0.827839
0.752137
0.757021
0.703297
0.666667
0.683761
0.500611
0.634921
0.737485
0.757021
0.722833
0.510379
0.705739
0.654457
0.698413
0.730159
0.693529
0.661783
0.617827
0.688645
0.593407
0.586081
0.659341
0.720391
0.786325
0.673993
0.708181
0.659341
0.676435
0.881563
0.649573
0.747253
0.578755
0.568987
0.703297
0.683761
0.722833
0.717949
0.752137
0.735043
0.600733
0.654457
0.659341
0.820513
0.595849
0.683761
0.603175
0.739927
0.735043
0.752137
0.805861
0.678877
0.698413
0.725275
0.639805
0.620269
0.561661
0.681319
0.630037
0.566545
0.754579
0.683761
0.754579
0.759463
0.764347
0.671551
0.649573
0.625153
0.715507
0.849817
0.827839
0.781441
0.717949
0.715507
0.783883
0.722833
0.720391
0.632479
0.727717
0.722833
0.652015
0.798535
0.644689
0.715507
0.688645
0.774115
0.832723
0.681319
0.666667
0.610501
0.615385
0.610501
0.608059
0.803419
0.703297
0.774115
0.634921
0.627595
0.786325
0.671551
0.698413
0.630037
0.705739
0.598291
0.620269
0.713065
0.732601
0.837607
0.800977
0.730159
0.673993
0.681319
0.761905
0.774115
0.818071
0.844933
0.688645
0.761905
0.564103
0.652015
0.605617
0.661783
0.742369
0.673993
0.744811
0.627595
0.700855
0.781441
0.713065
0.617827
0.681319
0.825397
0.583639
0.703297
0.705739
0.593407
0.681319
0.632479
0.586081
0.637363
0.615385
0.722833
0.564103
0.698413
0.564103
0.659341
0.757021
0.786325
0.749695
0.637363
0.666667
0.637363
0.681319
0.715507
0.705739
0.727717
0.590965
0.737485
0.688645
0.693529
0.720391
0.559219
0.659341
0.573871
0.571429
0.588523
0.603175
0.747253
0.471306
0.742369
0.637363
0.634921
0.783883
0.708181
0.744811
0.656899
0.649573
0.642247
0.710623
0.705739
0.561661
0.808303
0.669109
0.649573
0.693529
0.627595
0.627595
0.703297
0.791209
0.644689
0.691087
0.771673
0.664225
0.669109
0.691087
0.788767
0.659341
0.664225
0.766789
0.837607
0.788767
0.610501
0.634921
0.566545
0.669109
0.827839
0.666667
0.754579
0.637363
0.752137
0.783883
0.691087
0.735043
0.551893
0.586081
0.622711
0.483516
0.661783
0.652015
0.717949
0.732601
0.730159
0.774115
0.625153
0.688645
0.581197
0.727717
0.666667
0.681319
0.673993
0.593407
0.647131
0.620269
0.627595
0.671551
0.608059
0.764347
0.559219
0.725275
0.700855
0.691087
0.647131
0.600733
0.666667
0.578755
0.688645
0.549451
0.432234
0.517705
0.522589
0.737485
0.673993
0.686203
0.612943
0.549451
0.691087
0.625153
0.715507
0.568987
0.659341
0.622711
0.534799
0.620269
0.527473
0.571429
0.600733
0.615385
0.581197
0.586081
0.727717
0.568987
0.637363
0.539683
0.576313
0.608059
0.608059
0.608059
0.630037
0.627595
0.615385
0.539683
0.590965
0.517705
0.647131
0.617827
0.539683
0.566545
0.542125
0.634921
0.588523
0.539683
0.608059
0.542125
0.600733
0.456654
0.610501
0.510379
0.598291
0.622711
0.473748
0.593407
0.581197
0.586081
0.510379
0.442002
0.539683
0.534799
0.568987
0.632479
0.676435
0.700855
0.566545
0.520147
0.4884
0.617827
0.510379
0.537241
0.586081
0.525031
0.676435
0.610501
0.698413
0.608059
0.449328
0.510379
0.539683
0.642247
0.529915
0.603175
0.556777
0.473748
0.652015
0.46398
0.498168
0.559219
0.554335
0.664225
0.510379
0.600733
0.517705
0.554335
0.620269
0.47619
0.442002
0.490842
0.669109
0.568987
0.534799
0.43956
0.42735
0.588523
0.45177
0.576313
0.490842
0.412698
0.532357
0.571429
0.725275
0.581197
0.630037
0.554335
0.481074
0.669109
0.485958
0.517705
0.520147
0.578755
0.647131
0.554335
0.498168
0.473748
0.498168
0.522589
0.598291
0.678877
0.554335
0.498168
0.393162
0.556777
0.576313
0.481074
0.559219
0.510379
0.547009
0.400488
0.412698
0.361416
0.368742
0.559219
0.483516
0.529915
0.468864
0.532357
0.639805
0.444444
0.454212
0.385836
0.498168
0.534799
0.532357
0.652015
0.564103
0.507937
0.442002
0.512821
0.556777
0.385836
0.4884
0.47619
0.505495
0.507937
0.466422
0.446886
0.398046
0.517705
0.495726
0.605617
0.537241
0.43956
0.512821
0.398046
0.573871
0.4884
0.385836
0.639805
0.583639
0.627595
0.334554
0.400488
0.398046
0.363858
0.547009
0.503053
0.634921
0.571429
0.481074
0.556777
0.454212
0.608059
0.571429
0.459096
0.466422
0.473748
0.454212
0.422466
0.590965
0.40293
0.466422
0.442002
0.444444
0.3663
0.319902
0.539683
0.449328
0.395604
0.400488
0.449328
0.542125
0.361416
0.444444
0.456654
0.456654
0.4884
0.363858
0.456654
0.490842
0.517705
0.47619
0.424908
0.510379
0.45177
0.500611
0.405372
0.498168
0.424908
0.446886
0.520147
0.500611
0.461538
0.542125
0.40293
0.456654
0.398046
0.544567
0.468864
0.446886
0.449328
0.395604
0.456654
0.310134
0.434676
0.37851
0.249084
0.3663
0.290598
0.356532
0.422466
0.461538
0.407814
0.319902
0.454212
0.400488
0.449328
0.358974
0.393162
0.383394
0.300366
0.424908
0.35409
0.346764
0.429792
0.371184
0.395604
0.278388
0.388278
0.275946
0.515263
0.525031
0.307692
0.363858
0.212454
0.412698
0.307692
0.322344
0.37851
0.398046
0.405372
0.40293
0.380952
0.339438
0.31746
0.300366
0.31746
0.432234
0.319902
0.395604
0.434676
0.358974
0.493284
0.581197
0.503053
0.241758
0.363858
0.349206
0.258852
0.288156
0.214896
0.35409
0.34188
0.319902
0.40293
0.432234
0.473748
0.336996
0.471306
0.542125
0.349206
0.310134
0.307692
0.424908
0.400488
0.315018
0.266178
0.302808
0.336996
0.285714
0.422466
0.383394
0.410256
0.412698
0.373626
0.444444
0.322344
0.40293
0.31746
0.29304
0.34188
0.26862
0.43956
0.349206
0.310134
0.3663
0.312576
0.424908
0.395604
0.405372
0.385836
0.371184
0.37851
0.351648
0.26862
0.322344
0.346764
0.283272
0.344322
0.351648
0.239316
0.395604
0.385836
0.46398
0.473748
0.388278
0.336996
0.339438
0.295482
0.407814
0.380952
0.290598
0.214896
0.376068
0.34188
0.34188
0.368742
0.351648
0.29304
0.2442
0.266178
0.327228
0.356532
0.302808
0.336996
0.361416
0.3663
0.310134
0.229548
0.312576
0.346764
0.28083
0.273504
0.29304
0.31746
0.214896
0.26862
0.327228
0.275946
0.30525
0.358974
0.368742
0.253968
0.307692
0.307692
0.266178
0.327228
0.385836
0.398046
0.31746
0.251526
0.380952
0.229548
0.266178
0.398046
0.336996
0.327228
0.302808
0.349206
0.344322
0.37851
0.319902
0.271062
0.249084
0.278388
0.356532
0.224664
0.30525
0.327228
0.297924
0.371184
0.297924
0.31746
0.23199
0.297924
0.327228
0.275946
0.29304
0.251526
0.249084
0.34188
0.327228
0.315018
0.288156
0.258852
0.249084
0.344322
0.358974
0.34188
0.34188
0.266178
0.332112
0.327228
0.324786
0.315018
0.315018
0.388278
0.288156
0.26862
0.339438
0.297924
0.327228
0.349206
0.356532
0.346764
0.356532
0.346764
0.210012
0.251526
0.21978
0.214896
0.28083
0.263736
0.35409
0.32967
0.351648
0.297924
0.307692
0.288156
0.310134
0.288156
0.385836
0.363858
0.336996
0.26862
0.349206
0.334554
0.349206
0.295482
0.28083
0.285714
0.349206
0.332112
0.31746
0.373626
0.278388
0.307692
0.278388
0.349206
0.344322
0.376068
0.266178
0.288156
0.258852
0.324786
0.398046
0.35409
0.35409
0.349206
0.307692
0.327228
0.39072
0.368742
0.373626
0.373626
0.385836
0.324786
0.400488
0.356532
0.336996
0.42735
0.412698
0.41514
0.388278
0.273504
0.332112
0.380952
0.422466
0.412698
0.346764
0.290598
0.283272
0.363858
0.32967
0.278388
0.26862
0.178266
0.302808
0.32967
0.300366
0.253968
0.351648
0.324786
0.29304
0.373626
0.34188
0.349206
0.32967
0.380952
0.395604
0.315018
0.424908
0.34188
0.32967
0.336996
0.361416
0.45177
0.456654
0.429792
0.398046
0.310134
0.300366
0.361416
0.361416
0.324786
0.417582
0.41514
0.407814
0.37851
0.32967
0.319902
0.307692
0.271062
0.241758
0.210012
0.322344
0.434676
0.361416
0.332112
0.307692
0.356532
0.385836
0.485958
0.261294
0.34188
0.41514
0.434676
0.34188
0.336996
0.307692
0.327228
0.32967
0.361416
0.334554
0.373626
0.40293
0.327228
0.288156
0.32967
0.483516
0.40293
0.637363
0.398046
0.449328
0.361416
0.444444
0.358974
0.283272
0.383394
0.307692
0.368742
0.407814
0.407814
0.527473
0.47619
0.395604
0.380952
0.405372
0.35409
0.361416
0.395604
0.28083
0.363858
0.420024
0.446886
0.417582
0.322344
0.349206
0.327228
0.498168
0.551893
0.371184
0.527473
0.420024
0.505495
0.407814
0.388278
0.420024
0.35409
0.35409
0.336996
0.35409
0.302808
0.349206
0.500611
0.30525
0.35409
0.336996
0.30525
0.336996
0.32967
0.466422
0.34188
0.493284
0.376068
0.290598
0.410256
0.3663
0.437118
0.332112
0.332112
0.434676
0.410256
0.446886
0.358974
0.534799
0.368742
0.485958
0.434676
0.327228
0.40293
0.522589
0.517705
0.43956
0.456654
0.471306
0.493284
0.605617
0.393162
0.459096
0.420024
0.371184
0.385836
0.222222
0.383394
0.380952
0.376068
0.468864
0.376068
0.388278
0.429792
0.505495
0.429792
0.498168
0.468864
0.410256
0.498168
0.434676
0.556777
0.456654
0.380952
0.495726
0.368742
0.459096
0.424908
0.395604
0.376068
0.383394
0.505495
0.32967
0.549451
0.495726
0.532357
0.525031
0.339438
0.505495
0.461538
0.515263
0.495726
0.358974
0.40293
0.468864
0.43956
0.388278
0.324786
0.363858
0.420024
0.4884
0.358974
0.393162
0.393162
0.398046
0.507937
0.449328
0.493284
0.344322
0.37851
0.398046
0.385836
0.525031
0.407814
0.498168
0.3663
0.383394
0.473748
0.461538
0.612943
0.429792
0.559219
0.437118
0.417582
0.400488
0.327228
0.383394
0.324786
0.424908
0.490842
0.383394
0.46398
0.446886
0.449328
0.380952
0.383394
0.466422
0.363858
0.437118
0.295482
0.344322
0.512821
0.468864
0.473748
0.424908
0.630037
0.490842
0.371184
0.454212
0.45177
0.542125
0.356532
0.383394
0.429792
0.422466
0.420024
0.310134
0.527473
0.41514
0.371184
0.393162
0.466422
0.581197
0.498168
0.459096
0.446886
0.398046
0.46398
0.398046
0.515263
0.517705
0.45177
0.42735
0.466422
0.522589
0.473748
0.556777
0.37851
0.410256
0.393162
0.539683
0.564103
0.461538
0.46398
0.444444
0.549451
0.630037
0.495726
0.468864
0.437118
0.449328
0.37851
0.334554
0.376068
0.376068
0.542125
0.380952
0.449328
0.649573
0.412698
0.449328
0.395604
0.40293
0.429792
0.437118
0.4884
0.503053
0.515263
0.510379
0.434676
0.43956
0.437118
0.525031
0.454212
0.37851
0.32967
0.420024
0.490842
0.468864
0.490842
0.398046
0.40293
0.42735
0.495726
0.393162
0.388278
0.483516
0.395604
0.483516
0.398046
0.361416
0.512821
0.32967
0.432234
0.376068
0.371184
0.43956
0.398046
0.542125
0.422466
0.573871
0.525031
0.45177
0.608059
0.424908
0.490842
0.525031
0.43956
0.459096
0.507937
0.473748
0.422466
0.510379
0.666667
0.485958
0.454212
0.383394
0.503053
0.512821
0.412698
0.373626
0.442002
0.547009
0.478632
0.466422
0.45177
0.3663
0.590965
0.539683
0.590965
0.456654
0.527473
0.41514
0.449328
0.490842
0.544567
0.507937
0.420024
0.551893
0.468864
0.388278
0.586081
0.483516
0.498168
0.3663
0.380952
0.437118
0.468864
0.617827
0.581197
0.608059
0.466422
0.429792
0.595849
0.529915
0.505495
0.3663
0.481074
0.566545
0.542125
0.376068
0.383394
0.407814
0.410256
0.346764
0.429792
0.383394
0.515263
0.466422
0.549451
0.537241
0.42735
0.471306
0.395604
0.515263
0.478632
0.532357
0.593407
0.510379
0.576313
0.349206
0.444444
0.503053
0.434676
0.500611
0.39072
0.517705
0.47619
0.556777
0.398046
0.422466
0.561661
0.3663
0.473748
0.322344
0.393162
0.358974
0.459096
0.466422
0.363858
0.593407
0.432234
0.420024
0.456654
0.417582
0.405372
0.29304
0.461538
0.481074
0.380952
0.466422
0.398046
0.542125
0.461538
0.46398
0.4884
0.376068
0.47619
0.434676
0.35409
0.471306
0.461538
0.578755
0.4884
0.420024
0.429792
0.429792
0.461538
0.373626
0.549451
0.444444
0.412698
0.346764
0.422466
0.358974
0.35409
0.358974
0.383394
0.495726
0.434676
0.349206
0.45177
0.449328
0.481074
0.422466
0.485958
0.515263
0.461538
0.43956
0.449328
0.539683
0.437118
0.319902
0.429792
0.324786
0.466422
0.432234
0.483516
0.371184
0.393162
0.537241
0.539683
0.551893
0.385836
0.417582
0.429792
0.368742
0.40293
0.400488
0.505495
0.485958
0.395604
0.493284
0.410256
0.515263
0.35409
0.444444
0.500611
0.434676
0.47619
0.380952
0.444444
0.40293
0.400488
0.39072
0.31746
0.332112
0.41514
0.444444
0.481074
0.424908
0.41514
0.446886
0.586081
0.493284
0.515263
0.515263
0.442002
0.400488
0.356532
0.466422
0.398046
0.368742
0.505495
0.368742
0.481074
0.39072
0.498168
0.46398
0.498168
0.495726
0.310134
0.432234
0.349206
0.456654
0.40293
0.336996
0.322344
0.407814
0.383394
0.358974
0.361416
0.459096
0.380952
0.400488
0.319902
0.424908
0.505495
0.471306
0.522589
0.400488
0.468864
0.41514
0.483516
0.517705
0.368742
0.498168
0.454212
0.520147
0.483516
0.503053
0.412698
0.332112
0.522589
0.478632
0.434676
0.456654
0.422466
0.407814
0.336996
0.407814
0.332112
0.336996
0.437118
0.295482
0.398046
0.368742
0.334554
0.29304
0.40293
0.310134
0.373626
0.410256
0.388278
0.41514
0.3663
0.283272
0.459096
0.471306
0.424908
0.302808
0.361416
0.37851
0.339438
0.40293
0.339438
