TITLE	
DATA TYPE	ULTRAVIOLET SPECTRUM
ORIGIN	JASCO
OWNER	
DATE	25/11/19
TIME	13:34:43
SPECTROMETER/DATA SYSTEM	
LOCALE	2057
RESOLUTION	
DELTAX	-0.2
XUNITS	NANOMETERS
YUNITS	ABSORBANCE
FIRSTX	  900.0000
LASTX	  200.0000
NPOINTS	    3501
FIRSTY	     0.01359
MAXY	     2.67495
MINY	     0.00996
XYDATA
900.0000	0.0135889
899.8000	0.0145137
899.6000	0.0141038
899.4000	0.0141772
899.2000	0.0146695
899.0000	0.0143453
898.8000	0.0134882
898.6000	0.0133006
898.4000	0.0132893
898.2000	0.0128503
898.0000	0.0125886
897.8000	0.0125182
897.6000	0.013042
897.4000	0.0133252
897.2000	0.0129344
897.0000	0.0132679
896.8000	0.0129947
896.6000	0.0124801
896.4000	0.0126684
896.2000	0.012534
896.0000	0.0127934
895.8000	0.0130012
895.6000	0.0129982
895.4000	0.0130087
895.2000	0.0126132
895.0000	0.0129035
894.8000	0.0129132
894.6000	0.0126696
894.4000	0.013377
894.2000	0.013406
894.0000	0.0127128
893.8000	0.0137101
893.6000	0.014399
893.4000	0.0131803
893.2000	0.0122919
893.0000	0.0125425
892.8000	0.0131693
892.6000	0.0136404
892.4000	0.0134974
892.2000	0.0128629
892.0000	0.0126835
891.8000	0.0128835
891.6000	0.0130781
891.4000	0.0130808
891.2000	0.0122763
891.0000	0.0115927
890.8000	0.0123759
890.6000	0.0122016
890.4000	0.0119573
890.2000	0.0124218
890.0000	0.0122819
889.8000	0.0122113
889.6000	0.012406
889.4000	0.0119875
889.2000	0.0112901
889.0000	0.0111286
888.8000	0.0120308
888.6000	0.0128289
888.4000	0.0124246
888.2000	0.0115991
888.0000	0.0118523
887.8000	0.0123368
887.6000	0.0119485
887.4000	0.0121581
887.2000	0.0123095
887.0000	0.0124371
886.8000	0.0120178
886.6000	0.0120816
886.4000	0.0128463
886.2000	0.0121973
886.0000	0.0118339
885.8000	0.0123142
885.6000	0.0124068
885.4000	0.0115683
885.2000	0.010976
885.0000	0.0110542
884.8000	0.0116152
884.6000	0.0119046
884.4000	0.0113348
884.2000	0.0113521
884.0000	0.0118372
883.8000	0.0126996
883.6000	0.0126274
883.4000	0.0122584
883.2000	0.0122261
883.0000	0.0116549
882.8000	0.0117109
882.6000	0.0118055
882.4000	0.0116069
882.2000	0.0113287
882.0000	0.0111289
881.8000	0.0114521
881.6000	0.0116913
881.4000	0.0115232
881.2000	0.011489
881.0000	0.0119643
880.8000	0.0119641
880.6000	0.012095
880.4000	0.0117219
880.2000	0.0113664
880.0000	0.0118136
879.8000	0.0114206
879.6000	0.011403
879.4000	0.0120403
879.2000	0.0120437
879.0000	0.011127
878.8000	0.0111341
878.6000	0.0114226
878.4000	0.0113876
878.2000	0.0112504
878.0000	0.0110746
877.8000	0.0113917
877.6000	0.0116625
877.4000	0.0118406
877.2000	0.0117652
877.0000	0.0114848
876.8000	0.0118676
876.6000	0.0120204
876.4000	0.0110471
876.2000	0.0111463
876.0000	0.0114501
875.8000	0.0115679
875.6000	0.0118392
875.4000	0.0117504
875.2000	0.0116499
875.0000	0.0119606
874.8000	0.0119428
874.6000	0.0119021
874.4000	0.0121427
874.2000	0.0118295
874.0000	0.0117377
873.8000	0.0117614
873.6000	0.0119312
873.4000	0.0117965
873.2000	0.0116157
873.0000	0.0114037
872.8000	0.0114998
872.6000	0.0117534
872.4000	0.0116467
872.2000	0.0117383
872.0000	0.0111515
871.8000	0.0110921
871.6000	0.0115304
871.4000	0.0117107
871.2000	0.0119065
871.0000	0.0120163
870.8000	0.0117457
870.6000	0.0114523
870.4000	0.0114315
870.2000	0.0111733
870.0000	0.0114638
869.8000	0.0116564
869.6000	0.0116701
869.4000	0.0115747
869.2000	0.0116093
869.0000	0.0117981
868.8000	0.0117674
868.6000	0.0117086
868.4000	0.011581
868.2000	0.0122509
868.0000	0.0124486
867.8000	0.01194
867.6000	0.0117644
867.4000	0.0115006
867.2000	0.0111771
867.0000	0.0109461
866.8000	0.0111227
866.6000	0.0114914
866.4000	0.011163
866.2000	0.0110351
866.0000	0.0114679
865.8000	0.0113463
865.6000	0.0115416
865.4000	0.0116671
865.2000	0.011206
865.0000	0.0115851
864.8000	0.0118756
864.6000	0.0115232
864.4000	0.0116055
864.2000	0.011856
864.0000	0.0118209
863.8000	0.0116771
863.6000	0.0116233
863.4000	0.0117064
863.2000	0.0115459
863.0000	0.0117145
862.8000	0.0122734
862.6000	0.0121122
862.4000	0.0116682
862.2000	0.0115168
862.0000	0.0113348
861.8000	0.0116166
861.6000	0.0117234
861.4000	0.0113911
861.2000	0.0112551
861.0000	0.0110651
860.8000	0.0113991
860.6000	0.011536
860.4000	0.0110354
860.2000	0.0114101
860.0000	0.0115439
859.8000	0.0110167
859.6000	0.0109548
859.4000	0.011031
859.2000	0.0113088
859.0000	0.0113898
858.8000	0.0111989
858.6000	0.0108931
858.4000	0.0108662
858.2000	0.0109467
858.0000	0.0111252
857.8000	0.0112769
857.6000	0.011309
857.4000	0.0111571
857.2000	0.0113486
857.0000	0.0116107
856.8000	0.0111562
856.6000	0.0108386
856.4000	0.0109637
856.2000	0.0113125
856.0000	0.0114248
855.8000	0.0113035
855.6000	0.0112097
855.4000	0.0112804
855.2000	0.0109501
855.0000	0.01057
854.8000	0.0107312
854.6000	0.0109008
854.4000	0.0110481
854.2000	0.0111404
854.0000	0.0110222
853.8000	0.0112332
853.6000	0.0111242
853.4000	0.0110926
853.2000	0.0112108
853.0000	0.0108371
852.8000	0.0109518
852.6000	0.0111382
852.4000	0.0111063
852.2000	0.0111293
852.0000	0.0112676
851.8000	0.0112649
851.6000	0.0110192
851.4000	0.0111875
851.2000	0.011105
851.0000	0.011202
850.8000	0.0113898
850.6000	0.0108148
850.4000	0.0105363
850.2000	0.0109368
850.0000	0.0110617
849.8000	0.010811
849.6000	0.010972
849.4000	0.010678
849.2000	0.0104415
849.0000	0.0106597
848.8000	0.0108948
848.6000	0.0107806
848.4000	0.010603
848.2000	0.0107792
848.0000	0.0111003
847.8000	0.0110749
847.6000	0.0107316
847.4000	0.0110132
847.2000	0.0110534
847.0000	0.0108054
846.8000	0.0109279
846.6000	0.0107077
846.4000	0.0106432
846.2000	0.0106268
846.0000	0.0104971
845.8000	0.0105448
845.6000	0.0109788
845.4000	0.0109398
845.2000	0.0108063
845.0000	0.0105151
844.8000	0.0101559
844.6000	0.0104579
844.4000	0.0107252
844.2000	0.0105235
844.0000	0.00997645
843.8000	0.0102011
843.6000	0.0108101
843.4000	0.0108925
843.2000	0.0108533
843.0000	0.0107267
842.8000	0.0101457
842.6000	0.0103913
842.4000	0.0105594
842.2000	0.0107837
842.0000	0.0107695
841.8000	0.0106719
841.6000	0.0108606
841.4000	0.0106565
841.2000	0.0107226
841.0000	0.0109187
840.8000	0.0109136
840.6000	0.0105857
840.4000	0.0104417
840.2000	0.0102738
840.0000	0.0102029
839.8000	0.0106622
839.6000	0.0105137
839.4000	0.0102699
839.2000	0.0105037
839.0000	0.0103939
838.8000	0.0103486
838.6000	0.0102545
838.4000	0.010458
838.2000	0.0106301
838.0000	0.010175
837.8000	0.0101154
837.6000	0.0101862
837.4000	0.0104609
837.2000	0.0104271
837.0000	0.010159
836.8000	0.0101014
836.6000	0.010208
836.4000	0.0106092
836.2000	0.0106932
836.0000	0.0106606
835.8000	0.0106158
835.6000	0.0102036
835.4000	0.0101997
835.2000	0.0104892
835.0000	0.0102681
834.8000	0.0102801
834.6000	0.0105216
834.4000	0.0104526
834.2000	0.0101899
834.0000	0.0104121
833.8000	0.0103026
833.6000	0.0102762
833.4000	0.0106455
833.2000	0.0105667
833.0000	0.0107106
832.8000	0.0106859
832.6000	0.0107412
832.4000	0.0107414
832.2000	0.0104212
832.0000	0.0106028
831.8000	0.0103107
831.6000	0.0104454
831.4000	0.0107606
831.2000	0.0107558
831.0000	0.0110457
830.8000	0.0109906
830.6000	0.0107077
830.4000	0.0107871
830.2000	0.0107432
830.0000	0.0104128
829.8000	0.0109486
829.6000	0.0108788
829.4000	0.0106126
829.2000	0.0109166
829.0000	0.0109485
828.8000	0.0110235
828.6000	0.0105221
828.4000	0.010546
828.2000	0.0109519
828.0000	0.0106653
827.8000	0.0108085
827.6000	0.0105221
827.4000	0.0105263
827.2000	0.0110701
827.0000	0.0109309
826.8000	0.0106801
826.6000	0.0106063
826.4000	0.0109579
826.2000	0.0108027
826.0000	0.0101766
825.8000	0.0103365
825.6000	0.0105633
825.4000	0.0105584
825.2000	0.0106242
825.0000	0.0109962
824.8000	0.010885
824.6000	0.0105325
824.4000	0.0106534
824.2000	0.0108419
824.0000	0.0112673
823.8000	0.0111909
823.6000	0.0105228
823.4000	0.0105363
823.2000	0.0107807
823.0000	0.0107691
822.8000	0.0106832
822.6000	0.0104522
822.4000	0.0105407
822.2000	0.0108805
822.0000	0.01091
821.8000	0.0105555
821.6000	0.0109909
821.4000	0.0110851
821.2000	0.010889
821.0000	0.0106834
820.8000	0.0106877
820.6000	0.0103926
820.4000	0.00995792
820.2000	0.0105064
820.0000	0.0108622
819.8000	0.0112012
819.6000	0.0107413
819.4000	0.0105115
819.2000	0.0107527
819.0000	0.0105919
818.8000	0.0106073
818.6000	0.010371
818.4000	0.0102777
818.2000	0.0103395
818.0000	0.0110235
817.8000	0.0115411
817.6000	0.0106842
817.4000	0.010785
817.2000	0.0111362
817.0000	0.0108117
816.8000	0.0108065
816.6000	0.011128
816.4000	0.0110539
816.2000	0.010865
816.0000	0.0110749
815.8000	0.0110384
815.6000	0.010855
815.4000	0.010969
815.2000	0.0110344
815.0000	0.0107997
814.8000	0.0108555
814.6000	0.0111172
814.4000	0.0108968
814.2000	0.0103225
814.0000	0.0100825
813.8000	0.0102541
813.6000	0.0107137
813.4000	0.0109765
813.2000	0.0110506
813.0000	0.0108893
812.8000	0.0108282
812.6000	0.011014
812.4000	0.0109564
812.2000	0.0107793
812.0000	0.0109495
811.8000	0.0108414
811.6000	0.0106281
811.4000	0.0107878
811.2000	0.0108669
811.0000	0.0108347
810.8000	0.0108783
810.6000	0.0107514
810.4000	0.0106683
810.2000	0.0108625
810.0000	0.0110077
809.8000	0.0110378
809.6000	0.0104032
809.4000	0.0104175
809.2000	0.0107274
809.0000	0.0106371
808.8000	0.0111261
808.6000	0.0111261
808.4000	0.010874
808.2000	0.0109966
808.0000	0.0108771
807.8000	0.0103268
807.6000	0.01044
807.4000	0.0108634
807.2000	0.0106402
807.0000	0.0106239
806.8000	0.0107677
806.6000	0.0107935
806.4000	0.0106546
806.2000	0.0107511
806.0000	0.0109884
805.8000	0.010925
805.6000	0.0108436
805.4000	0.0108401
805.2000	0.0105643
805.0000	0.0102865
804.8000	0.01047
804.6000	0.0106482
804.4000	0.0105715
804.2000	0.0108395
804.0000	0.0109974
803.8000	0.0109947
803.6000	0.011209
803.4000	0.0111414
803.2000	0.0105373
803.0000	0.0104695
802.8000	0.010817
802.6000	0.0104506
802.4000	0.010539
802.2000	0.0108807
802.0000	0.010935
801.8000	0.0110699
801.6000	0.010915
801.4000	0.0106099
801.2000	0.0107066
801.0000	0.010956
800.8000	0.0110813
800.6000	0.0113701
800.4000	0.01138
800.2000	0.0111283
800.0000	0.0111673
799.8000	0.0111403
799.6000	0.0111073
799.4000	0.0111747
799.2000	0.0108321
799.0000	0.010661
798.8000	0.0109189
798.6000	0.0111035
798.4000	0.0110924
798.2000	0.011073
798.0000	0.0113531
797.8000	0.0112633
797.6000	0.011155
797.4000	0.0112039
797.2000	0.0110443
797.0000	0.0105346
796.8000	0.0104198
796.6000	0.0108455
796.4000	0.011081
796.2000	0.0111444
796.0000	0.0107586
795.8000	0.0110368
795.6000	0.0113261
795.4000	0.0113397
795.2000	0.0115302
795.0000	0.0111454
794.8000	0.0108068
794.6000	0.0109933
794.4000	0.0112743
794.2000	0.0109527
794.0000	0.0107854
793.8000	0.0109198
793.6000	0.0110354
793.4000	0.0111235
793.2000	0.0113399
793.0000	0.0115821
792.8000	0.0113609
792.6000	0.0112605
792.4000	0.0110858
792.2000	0.0110757
792.0000	0.0114767
791.8000	0.0113432
791.6000	0.0110257
791.4000	0.011008
791.2000	0.0110094
791.0000	0.0110617
790.8000	0.0113227
790.6000	0.0116002
790.4000	0.0113141
790.2000	0.0109883
790.0000	0.0111648
789.8000	0.0110984
789.6000	0.0107844
789.4000	0.0110249
789.2000	0.0112016
789.0000	0.011106
788.8000	0.0112994
788.6000	0.0111832
788.4000	0.0112165
788.2000	0.0114161
788.0000	0.0114586
787.8000	0.0110027
787.6000	0.0107056
787.4000	0.0113025
787.2000	0.011459
787.0000	0.0113208
786.8000	0.0113998
786.6000	0.0112435
786.4000	0.0110247
786.2000	0.01106
786.0000	0.0111391
785.8000	0.0108931
785.6000	0.0108912
785.4000	0.0113166
785.2000	0.0113173
785.0000	0.0113737
784.8000	0.011392
784.6000	0.0112289
784.4000	0.0111154
784.2000	0.0110086
784.0000	0.0111685
783.8000	0.0113638
783.6000	0.0112532
783.4000	0.0113116
783.2000	0.0112797
783.0000	0.0111227
782.8000	0.0112082
782.6000	0.0113665
782.4000	0.0115633
782.2000	0.011501
782.0000	0.0112323
781.8000	0.0111303
781.6000	0.0113762
781.4000	0.0117065
781.2000	0.0115398
781.0000	0.0113406
780.8000	0.0115582
780.6000	0.0112724
780.4000	0.0113141
780.2000	0.0115712
780.0000	0.0116994
779.8000	0.0116372
779.6000	0.011166
779.4000	0.010841
779.2000	0.0109608
779.0000	0.0113091
778.8000	0.0113822
778.6000	0.011402
778.4000	0.0114677
778.2000	0.0112381
778.0000	0.0111274
777.8000	0.0113218
777.6000	0.0113796
777.4000	0.0113762
777.2000	0.0115368
777.0000	0.011799
776.8000	0.0116185
776.6000	0.0112876
776.4000	0.0111793
776.2000	0.0115346
776.0000	0.0116859
775.8000	0.0113529
775.6000	0.0115935
775.4000	0.0118727
775.2000	0.0113569
775.0000	0.0114496
774.8000	0.0114975
774.6000	0.0110197
774.4000	0.0112424
774.2000	0.0116079
774.0000	0.0116076
773.8000	0.0116445
773.6000	0.0117561
773.4000	0.011812
773.2000	0.0118853
773.0000	0.0116383
772.8000	0.0116422
772.6000	0.0119573
772.4000	0.0118837
772.2000	0.0118126
772.0000	0.0118497
771.8000	0.0117609
771.6000	0.0117508
771.4000	0.0115695
771.2000	0.0114042
771.0000	0.0115421
770.8000	0.0115554
770.6000	0.011599
770.4000	0.0117428
770.2000	0.0119603
770.0000	0.0122236
769.8000	0.0119333
769.6000	0.0115951
769.4000	0.0118556
769.2000	0.0119034
769.0000	0.011787
768.8000	0.01174
768.6000	0.0115913
768.4000	0.0117155
768.2000	0.0118307
768.0000	0.0117721
767.8000	0.011567
767.6000	0.0116747
767.4000	0.0117819
767.2000	0.011783
767.0000	0.011724
766.8000	0.0114141
766.6000	0.0116199
766.4000	0.0119461
766.2000	0.0117191
766.0000	0.0115134
765.8000	0.0118814
765.6000	0.0121622
765.4000	0.0116671
765.2000	0.0113262
765.0000	0.0116455
764.8000	0.0115779
764.6000	0.0114916
764.4000	0.011791
764.2000	0.0117926
764.0000	0.012008
763.8000	0.0120675
763.6000	0.011935
763.4000	0.0120968
763.2000	0.0119731
763.0000	0.0118022
762.8000	0.0119444
762.6000	0.0121251
762.4000	0.0120209
762.2000	0.0118038
762.0000	0.0118418
761.8000	0.0118999
761.6000	0.0118975
761.4000	0.0119052
761.2000	0.0118058
761.0000	0.0121224
760.8000	0.0123396
760.6000	0.0118399
760.4000	0.0115254
760.2000	0.0119118
760.0000	0.0118337
759.8000	0.0116692
759.6000	0.0120513
759.4000	0.0120348
759.2000	0.0117892
759.0000	0.0119094
758.8000	0.0117971
758.6000	0.0118259
758.4000	0.0119256
758.2000	0.0115232
758.0000	0.0116697
757.8000	0.0119505
757.6000	0.0120076
757.4000	0.0119204
757.2000	0.011838
757.0000	0.0118301
756.8000	0.0118302
756.6000	0.0120711
756.4000	0.0120734
756.2000	0.0119063
756.0000	0.0119701
755.8000	0.0119328
755.6000	0.0118406
755.4000	0.0119438
755.2000	0.011781
755.0000	0.0116799
754.8000	0.0119729
754.6000	0.0120467
754.4000	0.0119328
754.2000	0.0118338
754.0000	0.0119914
753.8000	0.0121283
753.6000	0.0121502
753.4000	0.0121648
753.2000	0.0119858
753.0000	0.0120613
752.8000	0.0123093
752.6000	0.0122153
752.4000	0.0121419
752.2000	0.0119343
752.0000	0.0118511
751.8000	0.0122128
751.6000	0.0121918
751.4000	0.0119159
751.2000	0.0116356
751.0000	0.011793
750.8000	0.0119985
750.6000	0.0120496
750.4000	0.0120975
750.2000	0.0120911
750.0000	0.0123274
749.8000	0.0122663
749.6000	0.012217
749.4000	0.0122544
749.2000	0.0122107
749.0000	0.0121639
748.8000	0.0119363
748.6000	0.0120022
748.4000	0.0121594
748.2000	0.0124145
748.0000	0.0123905
747.8000	0.0120747
747.6000	0.012198
747.4000	0.0122609
747.2000	0.0123561
747.0000	0.0122292
746.8000	0.012081
746.6000	0.0122966
746.4000	0.0121575
746.2000	0.0119937
746.0000	0.0122465
745.8000	0.0122851
745.6000	0.0121536
745.4000	0.0122586
745.2000	0.012405
745.0000	0.0124279
744.8000	0.012381
744.6000	0.0121245
744.4000	0.0121575
744.2000	0.0122624
744.0000	0.0121425
743.8000	0.0121215
743.6000	0.0122081
743.4000	0.0125567
743.2000	0.0124164
743.0000	0.0122661
742.8000	0.0125702
742.6000	0.012441
742.4000	0.0123465
742.2000	0.0124926
742.0000	0.0123385
741.8000	0.0121291
741.6000	0.0123683
741.4000	0.0124232
741.2000	0.012171
741.0000	0.0124766
740.8000	0.0125697
740.6000	0.0123436
740.4000	0.0125383
740.2000	0.0125787
740.0000	0.0124208
739.8000	0.0126242
739.6000	0.0128303
739.4000	0.0127117
739.2000	0.0124024
739.0000	0.0124979
738.8000	0.0126423
738.6000	0.0126148
738.4000	0.012428
738.2000	0.0121935
738.0000	0.0125431
737.8000	0.0128265
737.6000	0.0126631
737.4000	0.012415
737.2000	0.0126065
737.0000	0.0127978
736.8000	0.0128189
736.6000	0.0127526
736.4000	0.0127914
736.2000	0.0128323
736.0000	0.0125645
735.8000	0.0127225
735.6000	0.0128995
735.4000	0.0127618
735.2000	0.0128522
735.0000	0.013054
734.8000	0.0131591
734.6000	0.0129504
734.4000	0.0129109
734.2000	0.0129507
734.0000	0.0127283
733.8000	0.0128335
733.6000	0.0127722
733.4000	0.0127855
733.2000	0.0130127
733.0000	0.0129305
732.8000	0.0130163
732.6000	0.0130004
732.4000	0.0129006
732.2000	0.0128736
732.0000	0.0128904
731.8000	0.0129787
731.6000	0.0130279
731.4000	0.0130793
731.2000	0.0128573
731.0000	0.0127997
730.8000	0.0131054
730.6000	0.0130941
730.4000	0.0129527
730.2000	0.0131415
730.0000	0.0132261
729.8000	0.0130803
729.6000	0.0130466
729.4000	0.0130631
729.2000	0.0130025
729.0000	0.0130162
728.8000	0.0130162
728.6000	0.0129923
728.4000	0.0131386
728.2000	0.0132238
728.0000	0.013267
727.8000	0.013369
727.6000	0.0132795
727.4000	0.0128989
727.2000	0.0129774
727.0000	0.0132649
726.8000	0.0131638
726.6000	0.0132013
726.4000	0.0131156
726.2000	0.012935
726.0000	0.0130511
725.8000	0.0132294
725.6000	0.0132258
725.4000	0.013278
725.2000	0.0131998
725.0000	0.0129907
724.8000	0.0129686
724.6000	0.013205
724.4000	0.0133064
724.2000	0.0131004
724.0000	0.0129515
723.8000	0.0130946
723.6000	0.0133964
723.4000	0.0132491
723.2000	0.0130267
723.0000	0.0131967
722.8000	0.0136229
722.6000	0.0135053
722.4000	0.0132692
722.2000	0.0133273
722.0000	0.0133695
721.8000	0.0134258
721.6000	0.0134001
721.4000	0.013446
721.2000	0.0134054
721.0000	0.0133189
720.8000	0.0132897
720.6000	0.0133583
720.4000	0.0133572
720.2000	0.0132671
720.0000	0.0132666
719.8000	0.0132573
719.6000	0.0132237
719.4000	0.0134054
719.2000	0.013582
719.0000	0.0134106
718.8000	0.0133288
718.6000	0.0134085
718.4000	0.0133677
718.2000	0.0131946
718.0000	0.0133008
717.8000	0.0134404
717.6000	0.0132391
717.4000	0.0131831
717.2000	0.0132699
717.0000	0.0132833
716.8000	0.0133086
716.6000	0.0135349
716.4000	0.0134164
716.2000	0.0134728
716.0000	0.0135372
715.8000	0.0133953
715.6000	0.0135811
715.4000	0.0134669
715.2000	0.0134386
715.0000	0.0136045
714.8000	0.0136516
714.6000	0.0137584
714.4000	0.0135805
714.2000	0.0132622
714.0000	0.0132846
713.8000	0.0133915
713.6000	0.0134835
713.4000	0.0133789
713.2000	0.0133178
713.0000	0.0134132
712.8000	0.0132077
712.6000	0.0131951
712.4000	0.0134411
712.2000	0.0135135
712.0000	0.0134843
711.8000	0.0135172
711.6000	0.0134935
711.4000	0.013532
711.2000	0.0133725
711.0000	0.0132649
710.8000	0.0134678
710.6000	0.0135587
710.4000	0.0135678
710.2000	0.0134141
710.0000	0.0134843
709.8000	0.0135554
709.6000	0.0134616
709.4000	0.0134436
709.2000	0.0136296
709.0000	0.0136823
708.8000	0.0133611
708.6000	0.0133202
708.4000	0.0134216
708.2000	0.0132603
708.0000	0.0132632
707.8000	0.0132944
707.6000	0.0133137
707.4000	0.0134208
707.2000	0.0134129
707.0000	0.0134229
706.8000	0.0135152
706.6000	0.0134951
706.4000	0.013272
706.2000	0.0132875
706.0000	0.0134417
705.8000	0.0135337
705.6000	0.0135797
705.4000	0.0134429
705.2000	0.0134609
705.0000	0.0137094
704.8000	0.0137918
704.6000	0.0135173
704.4000	0.0133877
704.2000	0.0135435
704.0000	0.013514
703.8000	0.0135997
703.6000	0.0137226
703.4000	0.0136149
703.2000	0.0135904
703.0000	0.0135444
702.8000	0.0134351
702.6000	0.0134326
702.4000	0.0134676
702.2000	0.0135717
702.0000	0.0135396
701.8000	0.0134929
701.6000	0.013417
701.4000	0.0134037
701.2000	0.0135731
701.0000	0.0135303
700.8000	0.0133939
700.6000	0.0133124
700.4000	0.0134944
700.2000	0.0135937
700.0000	0.0134172
699.8000	0.013455
699.6000	0.0135318
699.4000	0.0134817
699.2000	0.0136028
699.0000	0.0135466
698.8000	0.0135405
698.6000	0.013746
698.4000	0.0137176
698.2000	0.013561
698.0000	0.0134686
697.8000	0.0135156
697.6000	0.0137597
697.4000	0.0137652
697.2000	0.0135687
697.0000	0.0134832
696.8000	0.013466
696.6000	0.013617
696.4000	0.013644
696.2000	0.0137281
696.0000	0.0138517
695.8000	0.0137594
695.6000	0.0137325
695.4000	0.0136781
695.2000	0.0135558
695.0000	0.0136062
694.8000	0.0136984
694.6000	0.0136718
694.4000	0.0135759
694.2000	0.013635
694.0000	0.0137985
693.8000	0.0137699
693.6000	0.0136584
693.4000	0.0136079
693.2000	0.0136364
693.0000	0.0136603
692.8000	0.0136959
692.6000	0.0139012
692.4000	0.0138269
692.2000	0.0137508
692.0000	0.0138017
691.8000	0.0137625
691.6000	0.0138646
691.4000	0.0136652
691.2000	0.0135707
691.0000	0.0136772
690.8000	0.0137742
690.6000	0.0138605
690.4000	0.0137336
690.2000	0.0137767
690.0000	0.0138449
689.8000	0.0137975
689.6000	0.0138191
689.4000	0.0139084
689.2000	0.013795
689.0000	0.0136257
688.8000	0.0135962
688.6000	0.0136837
688.4000	0.01384
688.2000	0.0138558
688.0000	0.0139421
687.8000	0.013919
687.6000	0.0138711
687.4000	0.0140863
687.2000	0.0140526
687.0000	0.0139119
686.8000	0.0138653
686.6000	0.0138713
686.4000	0.0138107
686.2000	0.0138777
686.0000	0.0140094
685.8000	0.0138962
685.6000	0.0140041
685.4000	0.0139376
685.2000	0.0140139
685.0000	0.0143103
684.8000	0.0143117
684.6000	0.0141099
684.4000	0.013873
684.2000	0.0138377
684.0000	0.0139755
683.8000	0.0140748
683.6000	0.0139511
683.4000	0.0139515
683.2000	0.0138931
683.0000	0.0138367
682.8000	0.0138735
682.6000	0.0137988
682.4000	0.0137322
682.2000	0.0138477
682.0000	0.0140094
681.8000	0.0140774
681.6000	0.0139419
681.4000	0.0138271
681.2000	0.0139839
681.0000	0.01387
680.8000	0.0139449
680.6000	0.0140783
680.4000	0.0141161
680.2000	0.0142006
680.0000	0.0141814
679.8000	0.0141832
679.6000	0.0141528
679.4000	0.0141817
679.2000	0.0141364
679.0000	0.014059
678.8000	0.013889
678.6000	0.0139752
678.4000	0.0139617
678.2000	0.0138253
678.0000	0.0138565
677.8000	0.0139074
677.6000	0.0142445
677.4000	0.0145043
677.2000	0.014383
677.0000	0.0142504
676.8000	0.0141031
676.6000	0.0141098
676.4000	0.0142727
676.2000	0.0142435
676.0000	0.0142321
675.8000	0.0143123
675.6000	0.0143315
675.4000	0.0142884
675.2000	0.0141826
675.0000	0.0142082
674.8000	0.0143686
674.6000	0.0143187
674.4000	0.0142029
674.2000	0.0143772
674.0000	0.0146446
673.8000	0.0145475
673.6000	0.0145674
673.4000	0.0146817
673.2000	0.0147278
673.0000	0.0147438
672.8000	0.0145298
672.6000	0.0143494
672.4000	0.0143495
672.2000	0.0144278
672.0000	0.0144929
671.8000	0.014473
671.6000	0.0145166
671.4000	0.0145485
671.2000	0.0144812
671.0000	0.0145023
670.8000	0.0146199
670.6000	0.0145747
670.4000	0.0145325
670.2000	0.0145862
670.0000	0.0146709
669.8000	0.0145466
669.6000	0.0142992
669.4000	0.0144217
669.2000	0.0146851
669.0000	0.014636
668.8000	0.014576
668.6000	0.0146278
668.4000	0.0145056
668.2000	0.0145665
668.0000	0.0147251
667.8000	0.0147727
667.6000	0.0148754
667.4000	0.0149954
667.2000	0.0148737
667.0000	0.01464
666.8000	0.0146
666.6000	0.0145567
666.4000	0.0146817
666.2000	0.0147923
666.0000	0.0146587
665.8000	0.0145705
665.6000	0.0146898
665.4000	0.0147648
665.2000	0.0146999
665.0000	0.0148105
664.8000	0.0148608
664.6000	0.0148217
664.4000	0.0147457
664.2000	0.0148698
664.0000	0.0149724
663.8000	0.0147104
663.6000	0.0146531
663.4000	0.0148619
663.2000	0.0149342
663.0000	0.0149694
662.8000	0.0149823
662.6000	0.0149065
662.4000	0.0148377
662.2000	0.0148409
662.0000	0.0147373
661.8000	0.0147772
661.6000	0.014895
661.4000	0.0149498
661.2000	0.0151185
661.0000	0.0149933
660.8000	0.0147968
660.6000	0.0148077
660.4000	0.0148165
660.2000	0.0148002
660.0000	0.0147913
659.8000	0.0148532
659.6000	0.0149417
659.4000	0.0149835
659.2000	0.0149673
659.0000	0.0151065
658.8000	0.0151838
658.6000	0.0151737
658.4000	0.0153036
658.2000	0.0151446
658.0000	0.0148811
657.8000	0.0149953
657.6000	0.015163
657.4000	0.015156
657.2000	0.0150758
657.0000	0.0150801
656.8000	0.0150728
656.6000	0.0152746
656.4000	0.0153053
656.2000	0.015092
656.0000	0.0151278
655.8000	0.0152297
655.6000	0.0151255
655.4000	0.0151626
655.2000	0.0154526
655.0000	0.0153156
654.8000	0.0152284
654.6000	0.0155057
654.4000	0.0155098
654.2000	0.0152571
654.0000	0.0151946
653.8000	0.0151971
653.6000	0.0153157
653.4000	0.0153238
653.2000	0.0153356
653.0000	0.0152796
652.8000	0.0152043
652.6000	0.0154392
652.4000	0.0155525
652.2000	0.0155038
652.0000	0.0154862
651.8000	0.0155413
651.6000	0.0155433
651.4000	0.015388
651.2000	0.0153162
651.0000	0.0154183
650.8000	0.0154806
650.6000	0.0154452
650.4000	0.0153561
650.2000	0.0154396
650.0000	0.0153741
649.8000	0.0154638
649.6000	0.0156709
649.4000	0.0156231
649.2000	0.0155085
649.0000	0.0154848
648.8000	0.0154992
648.6000	0.0154073
648.4000	0.0155126
648.2000	0.0156882
648.0000	0.0155283
647.8000	0.0153007
647.6000	0.0154715
647.4000	0.0156973
647.2000	0.0156728
647.0000	0.0155839
646.8000	0.0155967
646.6000	0.0156364
646.4000	0.0157332
646.2000	0.0156386
646.0000	0.0157635
645.8000	0.0158208
645.6000	0.015641
645.4000	0.0157654
645.2000	0.0158247
645.0000	0.0158053
644.8000	0.015633
644.6000	0.0156225
644.4000	0.0156939
644.2000	0.0156272
644.0000	0.0157133
643.8000	0.015753
643.6000	0.0157315
643.4000	0.0157026
643.2000	0.0158026
643.0000	0.0159499
642.8000	0.0158779
642.6000	0.0158137
642.4000	0.0158327
642.2000	0.0157652
642.0000	0.0157851
641.8000	0.0158675
641.6000	0.0158255
641.4000	0.0158106
641.2000	0.0158004
641.0000	0.0157415
640.8000	0.0158333
640.6000	0.0159082
640.4000	0.0158936
640.2000	0.0158535
640.0000	0.0158187
639.8000	0.015936
639.6000	0.0159902
639.4000	0.0158884
639.2000	0.0158834
639.0000	0.0159699
638.8000	0.0158708
638.6000	0.0157672
638.4000	0.0159319
638.2000	0.0159741
638.0000	0.0158362
637.8000	0.0160208
637.6000	0.0161778
637.4000	0.0160755
637.2000	0.0159303
637.0000	0.0159286
636.8000	0.0158871
636.6000	0.0157535
636.4000	0.0159605
636.2000	0.0162
636.0000	0.0161323
635.8000	0.0160708
635.6000	0.01612
635.4000	0.0161112
635.2000	0.0161069
635.0000	0.0159691
634.8000	0.0160234
634.6000	0.0159929
634.4000	0.0158665
634.2000	0.0159475
634.0000	0.0158675
633.8000	0.015963
633.6000	0.0160237
633.4000	0.0160817
633.2000	0.0161027
633.0000	0.0160695
632.8000	0.0161673
632.6000	0.0160897
632.4000	0.0161273
632.2000	0.016189
632.0000	0.0161418
631.8000	0.0160563
631.6000	0.0160844
631.4000	0.0162276
631.2000	0.0161601
631.0000	0.0161406
630.8000	0.0162304
630.6000	0.016383
630.4000	0.0162837
630.2000	0.0161365
630.0000	0.0163214
629.8000	0.016441
629.6000	0.0163175
629.4000	0.0161978
629.2000	0.0163027
629.0000	0.0164386
628.8000	0.016446
628.6000	0.01645
628.4000	0.0164319
628.2000	0.0164601
628.0000	0.016468
627.8000	0.0163356
627.6000	0.0164065
627.4000	0.0165898
627.2000	0.0165294
627.0000	0.0163851
626.8000	0.0164442
626.6000	0.0165174
626.4000	0.0165085
626.2000	0.0166305
626.0000	0.0166772
625.8000	0.0165337
625.6000	0.0166116
625.4000	0.0165923
625.2000	0.0164298
625.0000	0.0164517
624.8000	0.0164835
624.6000	0.0165422
624.4000	0.0166991
624.2000	0.0166265
624.0000	0.016569
623.8000	0.0166817
623.6000	0.016634
623.4000	0.0166982
623.2000	0.016603
623.0000	0.0165574
622.8000	0.0166315
622.6000	0.0165777
622.4000	0.0165109
622.2000	0.0164614
622.0000	0.016554
621.8000	0.0166052
621.6000	0.0165985
621.4000	0.0163798
621.2000	0.0165253
621.0000	0.0169225
620.8000	0.0167845
620.6000	0.0166704
620.4000	0.0167788
620.2000	0.0167313
620.0000	0.0164794
619.8000	0.0166611
619.6000	0.0166444
619.4000	0.0164941
619.2000	0.0165446
619.0000	0.0165395
618.8000	0.0165163
618.6000	0.0166118
618.4000	0.0167041
618.2000	0.0167134
618.0000	0.0166365
617.8000	0.0166384
617.6000	0.0165672
617.4000	0.0164184
617.2000	0.0165432
617.0000	0.0167676
616.8000	0.0169115
616.6000	0.0170476
616.4000	0.0169407
616.2000	0.0168866
616.0000	0.0169961
615.8000	0.0169754
615.6000	0.0169687
615.4000	0.0169593
615.2000	0.0169606
615.0000	0.0169893
614.8000	0.0170455
614.6000	0.0169652
614.4000	0.016895
614.2000	0.0168529
614.0000	0.0168197
613.8000	0.0169647
613.6000	0.0170095
613.4000	0.0169725
613.2000	0.0170542
613.0000	0.0171393
612.8000	0.0171535
612.6000	0.0171411
612.4000	0.0170145
612.2000	0.0170076
612.0000	0.0170674
611.8000	0.0170209
611.6000	0.0171419
611.4000	0.0170859
611.2000	0.017131
611.0000	0.0173713
610.8000	0.0174212
610.6000	0.0173689
610.4000	0.0172057
610.2000	0.0171406
610.0000	0.0171538
609.8000	0.0173206
609.6000	0.0174424
609.4000	0.0172509
609.2000	0.0171646
609.0000	0.017127
608.8000	0.0171968
608.6000	0.0172263
608.4000	0.0172877
608.2000	0.0174886
608.0000	0.017413
607.8000	0.0172622
607.6000	0.0174406
607.4000	0.0176606
607.2000	0.0176253
607.0000	0.0176258
606.8000	0.0174906
606.6000	0.0173812
606.4000	0.0174712
606.2000	0.017631
606.0000	0.0176257
605.8000	0.0176061
605.6000	0.0175967
605.4000	0.0174502
605.2000	0.0174339
605.0000	0.0176491
604.8000	0.0177074
604.6000	0.0176869
604.4000	0.0177905
604.2000	0.0178966
604.0000	0.0178294
603.8000	0.0176831
603.6000	0.0178331
603.4000	0.0178727
603.2000	0.0178745
603.0000	0.0179111
602.8000	0.0178348
602.6000	0.0179602
602.4000	0.0178761
602.2000	0.0178139
602.0000	0.0179881
601.8000	0.0180831
601.6000	0.0180167
601.4000	0.0180259
601.2000	0.0181805
601.0000	0.0180443
600.8000	0.017979
600.6000	0.018074
600.4000	0.018106
600.2000	0.0180876
600.0000	0.0180636
599.8000	0.0180336
599.6000	0.0180811
599.4000	0.018087
599.2000	0.0180611
599.0000	0.0181419
598.8000	0.0184054
598.6000	0.0185592
598.4000	0.018495
598.2000	0.018347
598.0000	0.0182236
597.8000	0.0184007
597.6000	0.0185298
597.4000	0.0185478
597.2000	0.0185131
597.0000	0.0184998
596.8000	0.0185823
596.6000	0.018515
596.4000	0.018531
596.2000	0.0185575
596.0000	0.0185719
595.8000	0.0185734
595.6000	0.0186009
595.4000	0.0186194
595.2000	0.0185131
595.0000	0.0186551
594.8000	0.0187225
594.6000	0.0186107
594.4000	0.0187165
594.2000	0.0189328
594.0000	0.0189915
593.8000	0.0188353
593.6000	0.0188897
593.4000	0.0189807
593.2000	0.0188932
593.0000	0.0190474
592.8000	0.0191517
592.6000	0.0190836
592.4000	0.0189945
592.2000	0.0190138
592.0000	0.0191106
591.8000	0.0191753
591.6000	0.0191925
591.4000	0.0190671
591.2000	0.0191736
591.0000	0.0192627
590.8000	0.0191265
590.6000	0.0191302
590.4000	0.0192233
590.2000	0.0192277
590.0000	0.0193202
589.8000	0.0193673
589.6000	0.0192892
589.4000	0.0193091
589.2000	0.0194256
589.0000	0.0194621
588.8000	0.0193819
588.6000	0.0193746
588.4000	0.0194398
588.2000	0.0194549
588.0000	0.0195262
587.8000	0.0196781
587.6000	0.0196681
587.4000	0.0195182
587.2000	0.0196213
587.0000	0.0197358
586.8000	0.0196404
586.6000	0.0197213
586.4000	0.0197675
586.2000	0.0198268
586.0000	0.0198287
585.8000	0.0197589
585.6000	0.0198566
585.4000	0.019962
585.2000	0.0199967
585.0000	0.0200379
584.8000	0.0200768
584.6000	0.0201179
584.4000	0.0200656
584.2000	0.0201209
584.0000	0.0200829
583.8000	0.0199832
583.6000	0.020127
583.4000	0.0200855
583.2000	0.0201654
583.0000	0.0202877
582.8000	0.0201804
582.6000	0.020215
582.4000	0.020202
582.2000	0.0202531
582.0000	0.0204125
581.8000	0.0204939
581.6000	0.0205297
581.4000	0.0204956
581.2000	0.020618
581.0000	0.0207575
580.8000	0.0207391
580.6000	0.0206682
580.4000	0.0206946
580.2000	0.0206635
580.0000	0.0206584
579.8000	0.020713
579.6000	0.0205958
579.4000	0.0206151
579.2000	0.0207216
579.0000	0.0207157
578.8000	0.0207681
578.6000	0.0208034
578.4000	0.0207972
578.2000	0.0208478
578.0000	0.0207139
577.8000	0.0207921
577.6000	0.0209481
577.4000	0.0208706
577.2000	0.0209663
577.0000	0.0210729
576.8000	0.0210438
576.6000	0.0210528
576.4000	0.021106
576.2000	0.0212729
576.0000	0.0213137
575.8000	0.0211797
575.6000	0.0211627
575.4000	0.0212824
575.2000	0.0214698
575.0000	0.0215286
574.8000	0.021337
574.6000	0.0212948
574.4000	0.0214336
574.2000	0.0214236
574.0000	0.021519
573.8000	0.021594
573.6000	0.0215927
573.4000	0.0216387
573.2000	0.0215604
573.0000	0.0214803
572.8000	0.0216662
572.6000	0.0219154
572.4000	0.0219231
572.2000	0.0217985
572.0000	0.0217191
571.8000	0.0216667
571.6000	0.0217169
571.4000	0.0217365
571.2000	0.0218519
571.0000	0.0220948
570.8000	0.0220068
570.6000	0.0218601
570.4000	0.0219371
570.2000	0.0221335
570.0000	0.0222673
569.8000	0.0222252
569.6000	0.0221847
569.4000	0.0221082
569.2000	0.0221838
569.0000	0.0223062
568.8000	0.0224034
568.6000	0.0224533
568.4000	0.0224709
568.2000	0.0225794
568.0000	0.0225523
567.8000	0.0225147
567.6000	0.0223729
567.4000	0.0223855
567.2000	0.0226035
567.0000	0.0225751
566.8000	0.0226283
566.6000	0.0227925
566.4000	0.0227026
566.2000	0.022601
566.0000	0.0227617
565.8000	0.0230324
565.6000	0.0230616
565.4000	0.0230154
565.2000	0.0230133
565.0000	0.022888
564.8000	0.0229512
564.6000	0.0231523
564.4000	0.0232467
564.2000	0.02315
564.0000	0.0230708
563.8000	0.0232191
563.6000	0.023173
563.4000	0.0231415
563.2000	0.0232799
563.0000	0.0233119
562.8000	0.0232735
562.6000	0.0233499
562.4000	0.0235941
562.2000	0.02365
562.0000	0.0235524
561.8000	0.0235206
561.6000	0.0235936
561.4000	0.0236204
561.2000	0.0236851
561.0000	0.0237993
560.8000	0.023916
560.6000	0.0240443
560.4000	0.0239868
560.2000	0.0238385
560.0000	0.02391
559.8000	0.0240183
559.6000	0.0240423
559.4000	0.0240394
559.2000	0.0241008
559.0000	0.0243068
558.8000	0.0242469
558.6000	0.0242771
558.4000	0.0245376
558.2000	0.024639
558.0000	0.0245031
557.8000	0.0244185
557.6000	0.0244998
557.4000	0.0245434
557.2000	0.0246474
557.0000	0.0246331
556.8000	0.0245487
556.6000	0.0246654
556.4000	0.0246916
556.2000	0.0247151
556.0000	0.0249521
555.8000	0.0250697
555.6000	0.0250098
555.4000	0.0250211
555.2000	0.025054
555.0000	0.0251331
554.8000	0.0252075
554.6000	0.0251555
554.4000	0.0252418
554.2000	0.0253811
554.0000	0.025476
553.8000	0.0255275
553.6000	0.0255535
553.4000	0.0255733
553.2000	0.0254975
553.0000	0.0254826
552.8000	0.0256259
552.6000	0.025745
552.4000	0.025884
552.2000	0.0258736
552.0000	0.0259079
551.8000	0.0259683
551.6000	0.025933
551.4000	0.0258843
551.2000	0.0259997
551.0000	0.0263036
550.8000	0.0263027
550.6000	0.0261549
550.4000	0.0262162
550.2000	0.0262887
550.0000	0.0263086
549.8000	0.0263154
549.6000	0.0263883
549.4000	0.0265163
549.2000	0.0266005
549.0000	0.0265671
548.8000	0.0266187
548.6000	0.0267659
548.4000	0.0266984
548.2000	0.026916
548.0000	0.0269941
547.8000	0.0268366
547.6000	0.026868
547.4000	0.0270639
547.2000	0.027035
547.0000	0.0270817
546.8000	0.0273791
546.6000	0.0274623
546.4000	0.0274125
546.2000	0.0273544
546.0000	0.0273603
545.8000	0.0274903
545.6000	0.0275084
545.4000	0.0275504
545.2000	0.027715
545.0000	0.0276502
544.8000	0.0276975
544.6000	0.0277542
544.4000	0.0277349
544.2000	0.0277883
544.0000	0.0278804
543.8000	0.0279764
543.6000	0.0281306
543.4000	0.0281808
543.2000	0.0282895
543.0000	0.028441
542.8000	0.0283703
542.6000	0.0284677
542.4000	0.0285868
542.2000	0.0286691
542.0000	0.0288427
541.8000	0.0287759
541.6000	0.028717
541.4000	0.0287797
541.2000	0.0288455
541.0000	0.028908
540.8000	0.0288224
540.6000	0.0289648
540.4000	0.0292139
540.2000	0.0292939
540.0000	0.0293675
539.8000	0.0293113
539.6000	0.0293861
539.4000	0.0296243
539.2000	0.0295549
539.0000	0.0295185
538.8000	0.0297119
538.6000	0.0299104
538.4000	0.029906
538.2000	0.0297982
538.0000	0.0299441
537.8000	0.0301571
537.6000	0.0301431
537.4000	0.0300856
537.2000	0.0300896
537.0000	0.0303394
536.8000	0.0305653
536.6000	0.0305411
536.4000	0.0305911
536.2000	0.0307396
536.0000	0.0306943
535.8000	0.0306098
535.6000	0.0308644
535.4000	0.0310361
535.2000	0.0310014
535.0000	0.0309813
534.8000	0.0309732
534.6000	0.0311817
534.4000	0.0313852
534.2000	0.0314446
534.0000	0.0314779
533.8000	0.0316179
533.6000	0.0317394
533.4000	0.0317004
533.2000	0.0317558
533.0000	0.0319104
532.8000	0.0320305
532.6000	0.0321167
532.4000	0.0322703
532.2000	0.0323316
532.0000	0.0324498
531.8000	0.0324836
531.6000	0.0324846
531.4000	0.0327155
531.2000	0.0328584
531.0000	0.0328856
530.8000	0.0329778
530.6000	0.0330267
530.4000	0.0331085
530.2000	0.0331958
530.0000	0.0333198
529.8000	0.0332996
529.6000	0.0332983
529.4000	0.0335782
529.2000	0.0337212
529.0000	0.0337744
528.8000	0.0338528
528.6000	0.0339934
528.4000	0.0340722
528.2000	0.0341876
528.0000	0.0342907
527.8000	0.0342938
527.6000	0.0342522
527.4000	0.0342687
527.2000	0.0344959
527.0000	0.0347582
526.8000	0.034936
526.6000	0.0349432
526.4000	0.0350041
526.2000	0.0352136
526.0000	0.0352676
525.8000	0.0352751
525.6000	0.0354417
525.4000	0.0355998
525.2000	0.035634
525.0000	0.0357114
524.8000	0.0358342
524.6000	0.0358419
524.4000	0.0360267
524.2000	0.0361598
524.0000	0.0360569
523.8000	0.0361629
523.6000	0.0364572
523.4000	0.0364807
523.2000	0.0365387
523.0000	0.0367935
522.8000	0.0368345
522.6000	0.0369963
522.4000	0.0371475
522.2000	0.0372941
522.0000	0.0375116
521.8000	0.0375331
521.6000	0.037566
521.4000	0.0377006
521.2000	0.0377916
521.0000	0.037719
520.8000	0.0377629
520.6000	0.0380341
520.4000	0.0382888
520.2000	0.0383703
520.0000	0.0384923
519.8000	0.038622
519.6000	0.038676
519.4000	0.0388699
519.2000	0.0390641
519.0000	0.0391448
518.8000	0.0391783
518.6000	0.0392522
518.4000	0.039438
518.2000	0.0396478
518.0000	0.0397707
517.8000	0.0399292
517.6000	0.0400575
517.4000	0.0400998
517.2000	0.0401268
517.0000	0.0403607
516.8000	0.0405851
516.6000	0.0407182
516.4000	0.0407404
516.2000	0.0408948
516.0000	0.0411927
515.8000	0.0411857
515.6000	0.0412058
515.4000	0.0415086
515.2000	0.0416854
515.0000	0.0416924
514.8000	0.0417236
514.6000	0.041819
514.4000	0.042113
514.2000	0.0422574
514.0000	0.0424448
513.8000	0.0427666
513.6000	0.0427935
513.4000	0.0427591
513.2000	0.0430212
513.0000	0.0432405
512.8000	0.0433739
512.6000	0.0435285
512.4000	0.0436845
512.2000	0.0438498
512.0000	0.0439823
511.8000	0.0441604
511.6000	0.0442687
511.4000	0.0443847
511.2000	0.0445349
511.0000	0.0446486
510.8000	0.0448701
510.6000	0.0450259
510.4000	0.0452269
510.2000	0.0454429
510.0000	0.0454267
509.8000	0.045682
509.6000	0.0459402
509.4000	0.0460794
509.2000	0.0461385
509.0000	0.0463231
508.8000	0.0466102
508.6000	0.0467716
508.4000	0.0468401
508.2000	0.0469762
508.0000	0.0471636
507.8000	0.0473647
507.6000	0.0474407
507.4000	0.0475592
507.2000	0.0478461
507.0000	0.0480994
506.8000	0.0481759
506.6000	0.048287
506.4000	0.0486117
506.2000	0.04872
506.0000	0.0488515
505.8000	0.0491303
505.6000	0.0492865
505.4000	0.0494605
505.2000	0.0496822
505.0000	0.0498406
504.8000	0.0500271
504.6000	0.0502429
504.4000	0.0503779
504.2000	0.0505201
504.0000	0.0507262
503.8000	0.0508753
503.6000	0.0510918
503.4000	0.0513612
503.2000	0.0515004
503.0000	0.0515861
502.8000	0.0518505
502.6000	0.0521902
502.4000	0.0522639
502.2000	0.0523389
502.0000	0.052601
501.8000	0.0528735
501.6000	0.0529513
501.4000	0.0531117
501.2000	0.0535426
501.0000	0.0537991
500.8000	0.0538865
500.6000	0.0540095
500.4000	0.0543101
500.2000	0.0543898
500.0000	0.0544673
499.8000	0.0548041
499.6000	0.055055
499.4000	0.0552249
499.2000	0.0553222
499.0000	0.0554947
498.8000	0.0558106
498.6000	0.0560443
498.4000	0.0560188
498.2000	0.0562912
498.0000	0.0565822
497.8000	0.0567173
497.6000	0.057117
497.4000	0.0574183
497.2000	0.0574588
497.0000	0.0576555
496.8000	0.0580229
496.6000	0.058325
496.4000	0.0585622
496.2000	0.0587139
496.0000	0.0588692
495.8000	0.0591778
495.6000	0.0594861
495.4000	0.0595897
495.2000	0.0597844
495.0000	0.0600099
494.8000	0.0602554
494.6000	0.0606332
494.4000	0.0608966
494.2000	0.0611834
494.0000	0.0613711
493.8000	0.0614638
493.6000	0.0617467
493.4000	0.0620017
493.2000	0.0624011
493.0000	0.062619
492.8000	0.0627344
492.6000	0.0630494
492.4000	0.0634276
492.2000	0.0637393
492.0000	0.0638637
491.8000	0.0639693
491.6000	0.0642264
491.4000	0.0646573
491.2000	0.0649523
491.0000	0.0651521
490.8000	0.0653692
490.6000	0.0656001
490.4000	0.0660053
490.2000	0.0662071
490.0000	0.0663853
489.8000	0.0666324
489.6000	0.0668348
489.4000	0.0671854
489.2000	0.0674447
489.0000	0.0677248
488.8000	0.0680185
488.6000	0.0684293
488.4000	0.0688354
488.2000	0.0690642
488.0000	0.0691547
487.8000	0.0694689
487.6000	0.0697365
487.4000	0.0699138
487.2000	0.0702812
487.0000	0.0706491
486.8000	0.0710733
486.6000	0.071243
486.4000	0.0713778
486.2000	0.0717178
486.0000	0.0720855
485.8000	0.0724589
485.6000	0.0726646
485.4000	0.0729108
485.2000	0.0732341
485.0000	0.073453
484.8000	0.0737932
484.6000	0.0741195
484.4000	0.0744093
484.2000	0.074815
484.0000	0.0752716
483.8000	0.0755377
483.6000	0.0757589
483.4000	0.076059
483.2000	0.0764158
483.0000	0.0767011
482.8000	0.0769672
482.6000	0.077347
482.4000	0.0776684
482.2000	0.0779906
482.0000	0.078371
481.8000	0.0786624
481.6000	0.0789579
481.4000	0.0791755
481.2000	0.0794843
481.0000	0.0799763
480.8000	0.0802882
480.6000	0.080486
480.4000	0.0808799
480.2000	0.0813111
480.0000	0.0815604
479.8000	0.081811
479.6000	0.0820299
479.4000	0.0824302
479.2000	0.0827707
479.0000	0.0831117
478.8000	0.0836299
478.6000	0.0838027
478.4000	0.0841061
478.2000	0.0845961
478.0000	0.0849121
477.8000	0.0851779
477.6000	0.085486
477.4000	0.0859311
477.2000	0.0864112
477.0000	0.0866851
476.8000	0.0869441
476.6000	0.0874064
476.4000	0.087849
476.2000	0.0881499
476.0000	0.0883866
475.8000	0.0886672
475.6000	0.0890943
475.4000	0.0894972
475.2000	0.0898172
475.0000	0.0901864
474.8000	0.0907596
474.6000	0.0913718
474.4000	0.091452
474.2000	0.0917696
474.0000	0.0922814
473.8000	0.0925748
473.6000	0.0928992
473.4000	0.0932586
473.2000	0.0937871
473.0000	0.0941326
472.8000	0.0944067
472.6000	0.0949114
472.4000	0.0952643
472.2000	0.0956008
472.0000	0.0960946
471.8000	0.0963548
471.6000	0.0966512
471.4000	0.0970839
471.2000	0.0975797
471.0000	0.0980345
470.8000	0.0983892
470.6000	0.0987703
470.4000	0.0991501
470.2000	0.0996122
470.0000	0.0999426
469.8000	0.100235
469.6000	0.100705
469.4000	0.101259
469.2000	0.101643
469.0000	0.10202
468.8000	0.10246
468.6000	0.102906
468.4000	0.103314
468.2000	0.10366
468.0000	0.104222
467.8000	0.104732
467.6000	0.105131
467.4000	0.105597
467.2000	0.105974
467.0000	0.106193
466.8000	0.106586
466.6000	0.107139
466.4000	0.107652
466.2000	0.108091
466.0000	0.108429
465.8000	0.108951
465.6000	0.109486
465.4000	0.109766
465.2000	0.110232
465.0000	0.110779
464.8000	0.11127
464.6000	0.111737
464.4000	0.112218
464.2000	0.112642
464.0000	0.113105
463.8000	0.113568
463.6000	0.113929
463.4000	0.114376
463.2000	0.114962
463.0000	0.115449
462.8000	0.115893
462.6000	0.116481
462.4000	0.11689
462.2000	0.117247
462.0000	0.11774
461.8000	0.118343
461.6000	0.11886
461.4000	0.119296
461.2000	0.119765
461.0000	0.120277
460.8000	0.120699
460.6000	0.121181
460.4000	0.121721
460.2000	0.122328
460.0000	0.122913
459.8000	0.123316
459.6000	0.123834
459.4000	0.124345
459.2000	0.124813
459.0000	0.125289
458.8000	0.125892
458.6000	0.126454
458.4000	0.126941
458.2000	0.127473
458.0000	0.127868
457.8000	0.128461
457.6000	0.129011
457.4000	0.129546
457.2000	0.130105
457.0000	0.130569
456.8000	0.131247
456.6000	0.131756
456.4000	0.132113
456.2000	0.132762
456.0000	0.133427
455.8000	0.133804
455.6000	0.134276
455.4000	0.134891
455.2000	0.135506
455.0000	0.135963
454.8000	0.136525
454.6000	0.137082
454.4000	0.137511
454.2000	0.138129
454.0000	0.138724
453.8000	0.139243
453.6000	0.139857
453.4000	0.140523
453.2000	0.141069
453.0000	0.141546
452.8000	0.142136
452.6000	0.142695
452.4000	0.143162
452.2000	0.143706
452.0000	0.144379
451.8000	0.145019
451.6000	0.145447
451.4000	0.146134
451.2000	0.146852
451.0000	0.147498
450.8000	0.148076
450.6000	0.148572
450.4000	0.149187
450.2000	0.14988
450.0000	0.150559
449.8000	0.151218
449.6000	0.151754
449.4000	0.152298
449.2000	0.152866
449.0000	0.153583
448.8000	0.154166
448.6000	0.154927
448.4000	0.155417
448.2000	0.155988
448.0000	0.156716
447.8000	0.157273
447.6000	0.158022
447.4000	0.1587
447.2000	0.159187
447.0000	0.159886
446.8000	0.160628
446.6000	0.16118
446.4000	0.161835
446.2000	0.162546
446.0000	0.163258
445.8000	0.163926
445.6000	0.164487
445.4000	0.165098
445.2000	0.165766
445.0000	0.166392
444.8000	0.1671
444.6000	0.167781
444.4000	0.16845
444.2000	0.169078
444.0000	0.169677
443.8000	0.170458
443.6000	0.171177
443.4000	0.171921
443.2000	0.172706
443.0000	0.173332
442.8000	0.173915
442.6000	0.174613
442.4000	0.175556
442.2000	0.176515
442.0000	0.177087
441.8000	0.177694
441.6000	0.178383
441.4000	0.179016
441.2000	0.179729
441.0000	0.180401
440.8000	0.181077
440.6000	0.181867
440.4000	0.182655
440.2000	0.18334
440.0000	0.184162
439.8000	0.184902
439.6000	0.185545
439.4000	0.186405
439.2000	0.187211
439.0000	0.187804
438.8000	0.188492
438.6000	0.189172
438.4000	0.190024
438.2000	0.190701
438.0000	0.191346
437.8000	0.192378
437.6000	0.193076
437.4000	0.193688
437.2000	0.194568
437.0000	0.195354
436.8000	0.196078
436.6000	0.196857
436.4000	0.197669
436.2000	0.198483
436.0000	0.199164
435.8000	0.200048
435.6000	0.200822
435.4000	0.201403
435.2000	0.202168
435.0000	0.203145
434.8000	0.20401
434.6000	0.204691
434.4000	0.205416
434.2000	0.206179
434.0000	0.207185
433.8000	0.208073
433.6000	0.208719
433.4000	0.209549
433.2000	0.210355
433.0000	0.211173
432.8000	0.212079
432.6000	0.212816
432.4000	0.213661
432.2000	0.214546
432.0000	0.215265
431.8000	0.215869
431.6000	0.216699
431.4000	0.217666
431.2000	0.218602
431.0000	0.219351
430.8000	0.219944
430.6000	0.220737
430.4000	0.221565
430.2000	0.22234
430.0000	0.223249
429.8000	0.22403
429.6000	0.224696
429.4000	0.22562
429.2000	0.226509
429.0000	0.227249
428.8000	0.228061
428.6000	0.228939
428.4000	0.229638
428.2000	0.230336
428.0000	0.231138
427.8000	0.232013
427.6000	0.233083
427.4000	0.233779
427.2000	0.234511
427.0000	0.235403
426.8000	0.235963
426.6000	0.236631
426.4000	0.237557
426.2000	0.238352
426.0000	0.239265
425.8000	0.240117
425.6000	0.240859
425.4000	0.241709
425.2000	0.24236
425.0000	0.243166
424.8000	0.244068
424.6000	0.24505
424.4000	0.245803
424.2000	0.246488
424.0000	0.247232
423.8000	0.247989
423.6000	0.24895
423.4000	0.249883
423.2000	0.250421
423.0000	0.251097
422.8000	0.252057
422.6000	0.25284
422.4000	0.25356
422.2000	0.25426
422.0000	0.254985
421.8000	0.255625
421.6000	0.256554
421.4000	0.257468
421.2000	0.258357
421.0000	0.259261
420.8000	0.259901
420.6000	0.260459
420.4000	0.261212
420.2000	0.261897
420.0000	0.262826
419.8000	0.263608
419.6000	0.264064
419.4000	0.264971
419.2000	0.265814
419.0000	0.266488
418.8000	0.267211
418.6000	0.267989
418.4000	0.268817
418.2000	0.269549
418.0000	0.27032
417.8000	0.271078
417.6000	0.27167
417.4000	0.272222
417.2000	0.273046
417.0000	0.274059
416.8000	0.274875
416.6000	0.275513
416.4000	0.275965
416.2000	0.2767
416.0000	0.277701
415.8000	0.27855
415.6000	0.279091
415.4000	0.279744
415.2000	0.280546
415.0000	0.281206
414.8000	0.281885
414.6000	0.282498
414.4000	0.283201
414.2000	0.283929
414.0000	0.284449
413.8000	0.284909
413.6000	0.285728
413.4000	0.286529
413.2000	0.287234
413.0000	0.287756
412.8000	0.288268
412.6000	0.28913
412.4000	0.289756
412.2000	0.290491
412.0000	0.291027
411.8000	0.291545
411.6000	0.292373
411.4000	0.292978
411.2000	0.293442
411.0000	0.293887
410.8000	0.294716
410.6000	0.295377
410.4000	0.296
410.2000	0.296718
410.0000	0.297004
409.8000	0.297722
409.6000	0.298527
409.4000	0.299032
409.2000	0.299672
409.0000	0.300289
408.8000	0.300968
408.6000	0.301892
408.4000	0.30229
408.2000	0.302654
408.0000	0.303339
407.8000	0.303753
407.6000	0.304142
407.4000	0.304761
407.2000	0.30541
407.0000	0.306118
406.8000	0.306817
406.6000	0.30742
406.4000	0.307806
406.2000	0.308083
406.0000	0.308641
405.8000	0.309042
405.6000	0.309249
405.4000	0.309825
405.2000	0.310444
405.0000	0.310816
404.8000	0.311038
404.6000	0.311751
404.4000	0.312484
404.2000	0.3129
404.0000	0.313257
403.8000	0.313698
403.6000	0.314179
403.4000	0.314622
403.2000	0.315016
403.0000	0.31525
402.8000	0.315484
402.6000	0.316058
402.4000	0.316682
402.2000	0.316967
402.0000	0.317445
401.8000	0.317933
401.6000	0.318434
401.4000	0.318656
401.2000	0.318924
401.0000	0.319503
400.8000	0.319742
400.6000	0.32007
400.4000	0.320533
400.2000	0.320739
400.0000	0.321172
399.8000	0.321434
399.6000	0.321602
399.4000	0.322216
399.2000	0.322559
399.0000	0.323015
398.8000	0.323639
398.6000	0.324036
398.4000	0.324136
398.2000	0.324247
398.0000	0.324526
397.8000	0.324781
397.6000	0.325389
397.4000	0.325863
397.2000	0.326123
397.0000	0.326258
396.8000	0.326176
396.6000	0.326511
396.4000	0.326894
396.2000	0.327277
396.0000	0.327437
395.8000	0.327822
395.6000	0.328482
395.4000	0.328489
395.2000	0.328643
395.0000	0.329607
394.8000	0.330195
394.6000	0.330109
394.4000	0.329905
394.2000	0.329918
394.0000	0.329897
393.8000	0.329946
393.6000	0.330208
393.4000	0.330209
393.2000	0.330429
393.0000	0.330685
392.8000	0.330918
392.6000	0.331103
392.4000	0.331209
392.2000	0.331233
392.0000	0.331478
391.8000	0.331876
391.6000	0.332097
391.4000	0.331986
391.2000	0.331924
391.0000	0.332267
390.8000	0.332314
390.6000	0.332136
390.4000	0.332306
390.2000	0.332642
390.0000	0.332879
389.8000	0.332913
389.6000	0.332876
389.4000	0.333181
389.2000	0.333108
389.0000	0.333079
388.8000	0.33347
388.6000	0.333384
388.4000	0.333358
388.2000	0.333376
388.0000	0.333262
387.8000	0.333451
387.6000	0.333757
387.4000	0.333907
387.2000	0.333948
387.0000	0.334024
386.8000	0.333911
386.6000	0.333904
386.4000	0.334141
386.2000	0.334264
386.0000	0.333986
385.8000	0.33377
385.6000	0.333902
385.4000	0.333852
385.2000	0.333792
385.0000	0.333897
384.8000	0.334082
384.6000	0.334
384.4000	0.333733
384.2000	0.333691
384.0000	0.33358
383.8000	0.33351
383.6000	0.333601
383.4000	0.333598
383.2000	0.33351
383.0000	0.333411
382.8000	0.33337
382.6000	0.333414
382.4000	0.333842
382.2000	0.333748
382.0000	0.333401
381.8000	0.333169
381.6000	0.333044
381.4000	0.333295
381.2000	0.333144
381.0000	0.332821
380.8000	0.332781
380.6000	0.332757
380.4000	0.33246
380.2000	0.332436
380.0000	0.332673
379.8000	0.332538
379.6000	0.332323
379.4000	0.332037
379.2000	0.33181
379.0000	0.331382
378.8000	0.331291
378.6000	0.33122
378.4000	0.330934
378.2000	0.330988
378.0000	0.330851
377.8000	0.330803
377.6000	0.330805
377.4000	0.330583
377.2000	0.330575
377.0000	0.330615
376.8000	0.330322
376.6000	0.330114
376.4000	0.329908
376.2000	0.329501
376.0000	0.329597
375.8000	0.329841
375.6000	0.32937
375.4000	0.329141
375.2000	0.328967
375.0000	0.328617
374.8000	0.328196
374.6000	0.32823
374.4000	0.328496
374.2000	0.328213
374.0000	0.327788
373.8000	0.327562
373.6000	0.327413
373.4000	0.32755
373.2000	0.327465
373.0000	0.326967
372.8000	0.326918
372.6000	0.326782
372.4000	0.326318
372.2000	0.32607
372.0000	0.326204
371.8000	0.32623
371.6000	0.325733
371.4000	0.325285
371.2000	0.325343
371.0000	0.325329
370.8000	0.325221
370.6000	0.325278
370.4000	0.324998
370.2000	0.324722
370.0000	0.324386
369.8000	0.324399
369.6000	0.323462
369.4000	0.323051
369.2000	0.322991
369.0000	0.323055
368.8000	0.32328
368.6000	0.32324
368.4000	0.322492
368.2000	0.322254
368.0000	0.321962
367.8000	0.322055
367.6000	0.322237
367.4000	0.321626
367.2000	0.321432
367.0000	0.321195
366.8000	0.320965
366.6000	0.320831
366.4000	0.321058
366.2000	0.320977
366.0000	0.320831
365.8000	0.320807
365.6000	0.320459
365.4000	0.319944
365.2000	0.319718
365.0000	0.319899
364.8000	0.320181
364.6000	0.320304
364.4000	0.320277
364.2000	0.320203
364.0000	0.3198
363.8000	0.319766
363.6000	0.31945
363.4000	0.319291
363.2000	0.319402
363.0000	0.319296
362.8000	0.31922
362.6000	0.319358
362.4000	0.319599
362.2000	0.3192
362.0000	0.318647
361.8000	0.318734
361.6000	0.319113
361.4000	0.319276
361.2000	0.319095
361.0000	0.318853
360.8000	0.318889
360.6000	0.31867
360.4000	0.318714
360.2000	0.319024
360.0000	0.319313
359.8000	0.319141
359.6000	0.31898
359.4000	0.319601
359.2000	0.31977
359.0000	0.319579
358.8000	0.319601
358.6000	0.319637
358.4000	0.319796
358.2000	0.320079
358.0000	0.320056
357.8000	0.320163
357.6000	0.320509
357.4000	0.320628
357.2000	0.320521
357.0000	0.32069
356.8000	0.321256
356.6000	0.321573
356.4000	0.321666
356.2000	0.321977
356.0000	0.321823
355.8000	0.321935
355.6000	0.322501
355.4000	0.322383
355.2000	0.32276
355.0000	0.323239
354.8000	0.323255
354.6000	0.32373
354.4000	0.323785
354.2000	0.324168
354.0000	0.324633
353.8000	0.324609
353.6000	0.325126
353.4000	0.32582
353.2000	0.3261
353.0000	0.326613
352.8000	0.327581
352.6000	0.327905
352.4000	0.327845
352.2000	0.328101
352.0000	0.328523
351.8000	0.329182
351.6000	0.329879
351.4000	0.330674
351.2000	0.331261
351.0000	0.331384
350.8000	0.331756
350.6000	0.332586
350.4000	0.333345
350.2000	0.33373
350.0000	0.334478
349.8000	0.335252
349.6000	0.335885
349.4000	0.33623
349.2000	0.336559
349.0000	0.337209
348.8000	0.338435
348.6000	0.339784
348.4000	0.339932
348.2000	0.340342
348.0000	0.341422
347.8000	0.342214
347.6000	0.342734
347.4000	0.343664
347.2000	0.344732
347.0000	0.345466
346.8000	0.346613
346.6000	0.34732
346.4000	0.348214
346.2000	0.349284
346.0000	0.350208
345.8000	0.351425
345.6000	0.352067
345.4000	0.352921
345.2000	0.354151
345.0000	0.355409
344.8000	0.356358
344.6000	0.3573
344.4000	0.358854
344.2000	0.359879
344.0000	0.360619
343.8000	0.36168
343.6000	0.363321
343.4000	0.364509
343.2000	0.365252
343.0000	0.366949
342.8000	0.368353
342.6000	0.369258
342.4000	0.370073
342.2000	0.371509
342.0000	0.37332
341.8000	0.374427
341.6000	0.375514
341.4000	0.377228
341.2000	0.378856
341.0000	0.379554
340.8000	0.380963
340.6000	0.382635
340.4000	0.383963
340.2000	0.385922
340.0000	0.387302
339.8000	0.38878
339.6000	0.391393
339.4000	0.392854
339.2000	0.393765
339.0000	0.395238
338.8000	0.397193
338.6000	0.398952
338.4000	0.400594
338.2000	0.402661
338.0000	0.404242
337.8000	0.405506
337.6000	0.407187
337.4000	0.408993
337.2000	0.410368
337.0000	0.411983
336.8000	0.414041
336.6000	0.416175
336.4000	0.417898
336.2000	0.419698
336.0000	0.421529
335.8000	0.423048
335.6000	0.425156
335.4000	0.427383
335.2000	0.429687
335.0000	0.431286
334.8000	0.432836
334.6000	0.434991
334.4000	0.436839
334.2000	0.438898
334.0000	0.440784
333.8000	0.443208
333.6000	0.44557
333.4000	0.446966
333.2000	0.449165
333.0000	0.451548
332.8000	0.454372
332.6000	0.456458
332.4000	0.457683
332.2000	0.459783
332.0000	0.461957
331.8000	0.464192
331.6000	0.466762
331.4000	0.468781
331.2000	0.47051
331.0000	0.472988
330.8000	0.475379
330.6000	0.477992
330.4000	0.480366
330.2000	0.482121
330.0000	0.48414
329.8000	0.486228
329.6000	0.488657
329.4000	0.490908
329.2000	0.493461
329.0000	0.496465
328.8000	0.49824
328.6000	0.500418
328.4000	0.503164
328.2000	0.505732
328.0000	0.507657
327.8000	0.50991
327.6000	0.512926
327.4000	0.515441
327.2000	0.517512
327.0000	0.519951
326.8000	0.523225
326.6000	0.52619
326.4000	0.529036
326.2000	0.531413
326.0000	0.533331
325.8000	0.536191
325.6000	0.539127
325.4000	0.541763
325.2000	0.54478
325.0000	0.547527
324.8000	0.549589
324.6000	0.552137
324.4000	0.555572
324.2000	0.558482
324.0000	0.561507
323.8000	0.564368
323.6000	0.566834
323.4000	0.569482
323.2000	0.572406
323.0000	0.57536
322.8000	0.578003
322.6000	0.581324
322.4000	0.584422
322.2000	0.587172
322.0000	0.589978
321.8000	0.593031
321.6000	0.596331
321.4000	0.599103
321.2000	0.601836
321.0000	0.605247
320.8000	0.608597
320.6000	0.612071
320.4000	0.615461
320.2000	0.618282
320.0000	0.621683
319.8000	0.625014
319.6000	0.627575
319.4000	0.630582
319.2000	0.634098
319.0000	0.638052
318.8000	0.641518
318.6000	0.6449
318.4000	0.648584
318.2000	0.651342
318.0000	0.654932
317.8000	0.658967
317.6000	0.6619
317.4000	0.6654
317.2000	0.669942
317.0000	0.67413
316.8000	0.677472
316.6000	0.680728
316.4000	0.685039
316.2000	0.688907
316.0000	0.692511
315.8000	0.696746
315.6000	0.700518
315.4000	0.704826
315.2000	0.709386
315.0000	0.713441
314.8000	0.717356
314.6000	0.721179
314.4000	0.72565
314.2000	0.730055
314.0000	0.734363
313.8000	0.73897
313.6000	0.743366
313.4000	0.747468
313.2000	0.75176
313.0000	0.756321
312.8000	0.761233
312.6000	0.766539
312.4000	0.771247
312.2000	0.776378
312.0000	0.781312
311.8000	0.785969
311.6000	0.791546
311.4000	0.796503
311.2000	0.801654
311.0000	0.807593
310.8000	0.813175
310.6000	0.818417
310.4000	0.823328
310.2000	0.828683
310.0000	0.83422
309.8000	0.839595
309.6000	0.845728
309.4000	0.851877
309.2000	0.857331
309.0000	0.863434
308.8000	0.870098
308.6000	0.875722
308.4000	0.882133
308.2000	0.888547
308.0000	0.894626
307.8000	0.901395
307.6000	0.907884
307.4000	0.913915
307.2000	0.920409
307.0000	0.92781
306.8000	0.934534
306.6000	0.94113
306.4000	0.948339
306.2000	0.955786
306.0000	0.962788
305.8000	0.969846
305.6000	0.97759
305.4000	0.984551
305.2000	0.991837
305.0000	1.00007
304.8000	1.00703
304.6000	1.01428
304.4000	1.02232
304.2000	1.02951
304.0000	1.03754
303.8000	1.04575
303.6000	1.05304
303.4000	1.06151
303.2000	1.06902
303.0000	1.07707
302.8000	1.08572
302.6000	1.09347
302.4000	1.10284
302.2000	1.11102
302.0000	1.1188
301.8000	1.12802
301.6000	1.13688
301.4000	1.14561
301.2000	1.15398
301.0000	1.163
300.8000	1.17182
300.6000	1.18021
300.4000	1.18982
300.2000	1.19869
300.0000	1.20756
299.8000	1.21704
299.6000	1.22544
299.4000	1.23489
299.2000	1.24454
299.0000	1.2532
298.8000	1.26254
298.6000	1.27189
298.4000	1.28046
298.2000	1.28948
298.0000	1.29965
297.8000	1.30913
297.6000	1.31823
297.4000	1.32852
297.2000	1.33884
297.0000	1.34844
296.8000	1.35906
296.6000	1.36865
296.4000	1.37808
296.2000	1.38853
296.0000	1.39958
295.8000	1.40994
295.6000	1.41822
295.4000	1.42735
295.2000	1.43753
295.0000	1.44843
294.8000	1.45985
294.6000	1.46983
294.4000	1.48124
294.2000	1.49277
294.0000	1.50311
293.8000	1.51422
293.6000	1.52552
293.4000	1.5368
293.2000	1.54818
293.0000	1.55927
292.8000	1.5708
292.6000	1.58237
292.4000	1.59374
292.2000	1.60552
292.0000	1.61774
291.8000	1.62984
291.6000	1.64229
291.4000	1.6553
291.2000	1.66703
291.0000	1.67938
290.8000	1.69135
290.6000	1.70339
290.4000	1.71809
290.2000	1.72931
290.0000	1.74032
289.8000	1.75581
289.6000	1.77095
289.4000	1.7858
289.2000	1.79775
289.0000	1.80919
288.8000	1.82195
288.6000	1.83483
288.4000	1.84983
288.2000	1.86463
288.0000	1.87807
287.8000	1.89142
287.6000	1.9058
287.4000	1.9187
287.2000	1.93156
287.0000	1.94634
286.8000	1.96149
286.6000	1.97454
286.4000	1.98755
286.2000	2.0021
286.0000	2.01679
285.8000	2.03469
285.6000	2.04876
285.4000	2.05881
285.2000	2.07192
285.0000	2.08752
284.8000	2.10259
284.6000	2.11682
284.4000	2.13186
284.2000	2.14622
284.0000	2.1596
283.8000	2.17164
283.6000	2.18633
283.4000	2.2037
283.2000	2.2141
283.0000	2.22788
282.8000	2.2462
282.6000	2.26047
282.4000	2.27525
282.2000	2.28819
282.0000	2.29943
281.8000	2.31257
281.6000	2.32654
281.4000	2.33935
281.2000	2.35256
281.0000	2.36624
280.8000	2.38004
280.6000	2.39428
280.4000	2.40885
280.2000	2.41833
280.0000	2.43247
279.8000	2.44504
279.6000	2.45404
279.4000	2.47152
279.2000	2.48559
279.0000	2.50055
278.8000	2.51239
278.6000	2.52074
278.4000	2.5313
278.2000	2.54781
278.0000	2.56626
277.8000	2.56995
277.6000	2.57504
277.4000	2.58212
277.2000	2.59078
277.0000	2.60355
276.8000	2.61669
276.6000	2.62833
276.4000	2.6368
276.2000	2.64837
276.0000	2.65077
275.8000	2.65161
275.6000	2.66264
275.4000	2.6688
275.2000	2.67446
275.0000	2.67253
274.8000	2.66512
274.6000	2.66954
274.4000	2.67495
274.2000	2.67279
274.0000	2.66956
273.8000	2.66134
273.6000	2.65027
273.4000	2.65067
273.2000	2.64844
273.0000	2.63016
272.8000	2.61389
272.6000	2.61481
272.4000	2.58913
272.2000	2.56163
272.0000	2.55361
271.8000	2.54898
271.6000	2.52091
271.4000	2.48916
271.2000	2.47634
271.0000	2.44937
270.8000	2.41317
270.6000	2.38394
270.4000	2.36582
270.2000	2.33605
270.0000	2.29736
269.8000	2.25525
269.6000	2.21472
269.4000	2.18826
269.2000	2.15505
269.0000	2.12494
268.8000	2.09205
268.6000	2.04402
268.4000	1.9944
268.2000	1.95635
268.0000	1.91595
267.8000	1.85975
267.6000	1.81041
267.4000	1.76943
267.2000	1.73252
267.0000	1.69665
266.8000	1.65393
266.6000	1.59625
266.4000	1.54631
266.2000	1.50863
266.0000	1.46839
265.8000	1.41778
265.6000	1.37213
265.4000	1.32608
265.2000	1.29194
265.0000	1.23937
264.8000	1.1876
264.6000	1.15908
264.4000	1.1215
264.2000	1.07666
264.0000	1.05108
263.8000	1.03575
263.6000	1.00152
263.4000	0.968903
263.2000	0.945559
263.0000	0.925817
262.8000	0.899824
262.6000	0.883023
262.4000	0.869537
262.2000	0.845713
262.0000	0.836472
261.8000	0.81957
261.6000	0.797652
261.4000	0.798327
261.2000	0.793717
261.0000	0.770862
260.8000	0.759524
260.6000	0.755835
260.4000	0.752318
260.2000	0.758336
260.0000	0.762661
259.8000	0.745364
259.6000	0.70677
259.4000	0.699357
259.2000	0.702743
259.0000	0.698201
258.8000	0.685678
258.6000	0.685665
258.4000	0.690825
258.2000	0.674813
258.0000	0.66684
257.8000	0.657508
257.6000	0.65727
257.4000	0.657544
257.2000	0.637214
257.0000	0.621864
256.8000	0.620125
256.6000	0.622866
256.4000	0.619206
256.2000	0.613402
256.0000	0.616178
255.8000	0.606198
255.6000	0.596953
255.4000	0.589728
255.2000	0.588685
255.0000	0.595531
254.8000	0.600246
254.6000	0.590934
254.4000	0.576983
254.2000	0.578436
254.0000	0.577435
253.8000	0.571506
253.6000	0.568844
253.4000	0.56089
253.2000	0.559491
253.0000	0.554026
252.8000	0.544673
252.6000	0.535153
252.4000	0.527193
252.2000	0.544884
252.0000	0.536021
251.8000	0.524975
251.6000	0.533929
251.4000	0.528706
251.2000	0.515267
251.0000	0.511421
250.8000	0.511348
250.6000	0.501268
250.4000	0.502907
250.2000	0.498848
250.0000	0.492448
249.8000	0.507053
249.6000	0.501347
249.4000	0.491086
249.2000	0.487228
249.0000	0.489795
248.8000	0.494011
248.6000	0.487363
248.4000	0.477785
248.2000	0.471181
248.0000	0.475898
247.8000	0.47664
247.6000	0.482028
247.4000	0.478481
247.2000	0.468987
247.0000	0.475103
246.8000	0.473744
246.6000	0.463083
246.4000	0.464543
246.2000	0.450202
246.0000	0.444307
245.8000	0.456005
245.6000	0.454925
245.4000	0.456279
245.2000	0.452717
245.0000	0.451754
244.8000	0.442115
244.6000	0.437407
244.4000	0.441109
244.2000	0.427947
244.0000	0.423072
243.8000	0.431091
243.6000	0.435325
243.4000	0.430692
243.2000	0.435762
243.0000	0.436567
242.8000	0.421323
242.6000	0.417722
242.4000	0.423652
242.2000	0.427664
242.0000	0.420028
241.8000	0.427037
241.6000	0.43292
241.4000	0.432821
241.2000	0.424661
241.0000	0.404427
240.8000	0.407141
240.6000	0.409527
240.4000	0.412456
240.2000	0.4055
240.0000	0.400422
239.8000	0.416568
239.6000	0.421065
239.4000	0.407308
239.2000	0.400097
239.0000	0.400619
238.8000	0.407367
238.6000	0.400193
238.4000	0.391359
238.2000	0.39999
238.0000	0.392437
237.8000	0.382601
237.6000	0.37879
237.4000	0.386442
237.2000	0.384219
237.0000	0.381108
236.8000	0.388608
236.6000	0.396491
236.4000	0.392608
236.2000	0.373818
236.0000	0.377811
235.8000	0.392218
235.6000	0.392255
235.4000	0.385515
235.2000	0.389564
235.0000	0.388919
234.8000	0.380696
234.6000	0.373664
234.4000	0.386298
234.2000	0.388493
234.0000	0.372311
233.8000	0.376101
233.6000	0.379731
233.4000	0.371711
233.2000	0.365206
233.0000	0.362103
232.8000	0.36633
232.6000	0.375634
232.4000	0.377575
232.2000	0.371002
232.0000	0.371384
231.8000	0.368828
231.6000	0.364705
231.4000	0.361556
231.2000	0.367936
231.0000	0.377814
230.8000	0.362079
230.6000	0.352895
230.4000	0.361641
230.2000	0.355363
230.0000	0.360944
229.8000	0.371247
229.6000	0.357191
229.4000	0.359729
229.2000	0.36357
229.0000	0.362384
228.8000	0.363583
228.6000	0.354641
228.4000	0.3494
228.2000	0.360698
228.0000	0.35399
227.8000	0.339299
227.6000	0.338067
227.4000	0.354617
227.2000	0.370538
227.0000	0.366803
226.8000	0.35933
226.6000	0.346578
226.4000	0.346287
226.2000	0.350593
226.0000	0.347043
225.8000	0.339972
225.6000	0.343135
225.4000	0.359435
225.2000	0.350668
225.0000	0.330626
224.8000	0.343978
224.6000	0.338321
224.4000	0.326116
224.2000	0.336357
224.0000	0.33853
223.8000	0.337089
223.6000	0.327731
223.4000	0.331554
223.2000	0.353816
223.0000	0.357334
222.8000	0.351203
222.6000	0.351513
222.4000	0.349913
222.2000	0.339608
222.0000	0.334528
221.8000	0.348071
221.6000	0.359894
221.4000	0.360984
221.2000	0.355253
221.0000	0.356993
220.8000	0.354865
220.6000	0.335159
220.4000	0.333685
220.2000	0.340983
220.0000	0.342163
219.8000	0.348187
219.6000	0.341668
219.4000	0.355751
219.2000	0.363594
219.0000	0.348299
218.8000	0.345929
218.6000	0.341554
218.4000	0.348978
218.2000	0.357742
218.0000	0.346508
217.8000	0.331293
217.6000	0.346258
217.4000	0.350157
217.2000	0.35647
217.0000	0.36339
216.8000	0.338822
216.6000	0.331992
216.4000	0.339931
216.2000	0.336234
216.0000	0.346537
215.8000	0.363303
215.6000	0.33192
215.4000	0.320096
215.2000	0.333983
215.0000	0.337122
214.8000	0.354174
214.6000	0.364957
214.4000	0.345952
214.2000	0.321676
214.0000	0.314759
213.8000	0.330166
213.6000	0.363154
213.4000	0.372948
213.2000	0.356751
213.0000	0.344494
212.8000	0.350688
212.6000	0.348878
212.4000	0.334169
212.2000	0.338605
212.0000	0.340761
211.8000	0.338244
211.6000	0.33839
211.4000	0.34624
211.2000	0.353032
211.0000	0.340503
210.8000	0.345851
210.6000	0.337144
210.4000	0.331688
210.2000	0.351127
210.0000	0.333
209.8000	0.327913
209.6000	0.330628
209.4000	0.339555
209.2000	0.331311
209.0000	0.3092
208.8000	0.323624
208.6000	0.34375
208.4000	0.342099
208.2000	0.320491
208.0000	0.325179
207.8000	0.333652
207.6000	0.334164
207.4000	0.317481
207.2000	0.301106
207.0000	0.315228
206.8000	0.332129
206.6000	0.3365
206.4000	0.32507
206.2000	0.302272
206.0000	0.303233
205.8000	0.331027
205.6000	0.323623
205.4000	0.311748
205.2000	0.330865
205.0000	0.336053
204.8000	0.3274
204.6000	0.318109
204.4000	0.313995
204.2000	0.321213
204.0000	0.321313
203.8000	0.30923
203.6000	0.315749
203.4000	0.34198
203.2000	0.335259
203.0000	0.312758
202.8000	0.313282
202.6000	0.324264
202.4000	0.341844
202.2000	0.346569
202.0000	0.330372
201.8000	0.334228
201.6000	0.341055
201.4000	0.338235
201.2000	0.318299
201.0000	0.324403
200.8000	0.343466
200.6000	0.348158
200.4000	0.344774
200.2000	0.311231
200.0000	0.29355

##### Extended Information
[Comments]
Sample name
Comment
Username
Division
Organization	Uni Stuttgart

[Detailed Information]
Creation date	19/11/2025 14:34

Data array type	Linear data array
Horizontal axis	Wavelength [nm]
Vertical axis	Abs
Start	900 nm
End	200 nm
Data interval	0.2 nm
Data points	3501    

[Measurement Information]
Instrument name	V-770
Model name	V-770
Serial No.	G136261801

Accessory	EHCS-760
Accessory S/N	C031061397
  Temperature	0.00 C
  Control sensor	Holder
  Monitor sensor	Holder
  Start mode	Start immediately
  Cell	
  N2 purge	Not use
  Ref. beam	

Measurement date	19/11/2025 14:34

Photometric mode	Abs
Measurement range	900 - 200 nm
Data interval	0.2 nm
UV/Vis bandwidth	1.0 nm
NIR bandwidth	4.0 nm
UV/Vis response	0.06 sec
NIR response	0.06 sec
Scan mode	Continuous
Scan speed	400 nm/min
Change source at	340 nm
Change grating at	900 nm
Light source	D2/WI
Filter exchange	Step
Correction	Baseline
No. of cycles	1

