TITLE	
DATA TYPE	ULTRAVIOLET SPECTRUM
ORIGIN	JASCO
OWNER	
DATE	25/11/19
TIME	12:51:05
SPECTROMETER/DATA SYSTEM	
LOCALE	2057
RESOLUTION	
DELTAX	-0.2
XUNITS	NANOMETERS
YUNITS	ABSORBANCE
FIRSTX	  900.0000
LASTX	  200.0000
NPOINTS	    3501
FIRSTY	    -0.00292
MAXY	     2.34215
MINY	    -0.00739
XYDATA
900.0000	-0.00292151
899.8000	-0.00308236
899.6000	-0.00252095
899.4000	-0.00195864
899.2000	-0.00200046
899.0000	-0.00223858
898.8000	-0.00271161
898.6000	-0.00277825
898.4000	-0.00286348
898.2000	-0.00259632
898.0000	-0.00342109
897.8000	-0.00378614
897.6000	-0.00302474
897.4000	-0.00342929
897.2000	-0.00432635
897.0000	-0.00455199
896.8000	-0.00387553
896.6000	-0.0033984
896.4000	-0.00396385
896.2000	-0.00351464
896.0000	-0.00212774
895.8000	-0.00276382
895.6000	-0.00410254
895.4000	-0.00433294
895.2000	-0.00383782
895.0000	-0.00289971
894.8000	-0.00288587
894.6000	-0.0037151
894.4000	-0.00337352
894.2000	-0.00256531
894.0000	-0.00255041
893.8000	-0.00278152
893.6000	-0.0031847
893.4000	-0.00332885
893.2000	-0.00394853
893.0000	-0.00489435
892.8000	-0.00392869
892.6000	-0.00327195
892.4000	-0.00359221
892.2000	-0.00383871
892.0000	-0.0035874
891.8000	-0.00339312
891.6000	-0.00410949
891.4000	-0.00437868
891.2000	-0.00485147
891.0000	-0.00568236
890.8000	-0.00495303
890.6000	-0.00456013
890.4000	-0.00458852
890.2000	-0.00414299
890.0000	-0.003912
889.8000	-0.00410581
889.6000	-0.00434375
889.4000	-0.0043646
889.2000	-0.00475317
889.0000	-0.00469086
888.8000	-0.00426576
888.6000	-0.00400828
888.4000	-0.00455799
888.2000	-0.00442132
888.0000	-0.00345976
887.8000	-0.0039256
887.6000	-0.00446189
887.4000	-0.00423636
887.2000	-0.00434298
887.0000	-0.00401185
886.8000	-0.00405425
886.6000	-0.00433027
886.4000	-0.00403489
886.2000	-0.00391937
886.0000	-0.00381881
885.8000	-0.00389668
885.6000	-0.00423511
885.4000	-0.00505223
885.2000	-0.00541567
885.0000	-0.00519335
884.8000	-0.00497365
884.6000	-0.00523445
884.4000	-0.0051175
884.2000	-0.00422211
884.0000	-0.00422282
883.8000	-0.00423999
883.6000	-0.00460569
883.4000	-0.0048131
883.2000	-0.0048583
883.0000	-0.00548356
882.8000	-0.00558382
882.6000	-0.00528369
882.4000	-0.00568895
882.2000	-0.00525304
882.0000	-0.0048656
881.8000	-0.00509618
881.6000	-0.00511388
881.4000	-0.00506084
881.2000	-0.00490641
881.0000	-0.00523897
880.8000	-0.00501142
880.6000	-0.00475406
880.4000	-0.00517417
880.2000	-0.00547869
880.0000	-0.00493706
879.8000	-0.00507266
879.6000	-0.00552157
879.4000	-0.00541704
879.2000	-0.00534154
879.0000	-0.00562665
878.8000	-0.00521046
878.6000	-0.00476421
878.4000	-0.00506559
878.2000	-0.00528066
878.0000	-0.00553904
877.8000	-0.0056036
877.6000	-0.00533323
877.4000	-0.00541579
877.2000	-0.0050622
877.0000	-0.00498713
876.8000	-0.00554646
876.6000	-0.00523796
876.4000	-0.00541365
876.2000	-0.00555258
876.0000	-0.00533044
875.8000	-0.00563597
875.6000	-0.00571152
875.4000	-0.0056172
875.2000	-0.00567927
875.0000	-0.00548992
874.8000	-0.00531642
874.6000	-0.00539993
874.4000	-0.00550518
874.2000	-0.00562528
874.0000	-0.0058754
873.8000	-0.00558923
873.6000	-0.00510521
873.4000	-0.00563781
873.2000	-0.00568854
873.0000	-0.00550292
872.8000	-0.00532574
872.6000	-0.00543687
872.4000	-0.00582259
872.2000	-0.00571592
872.0000	-0.00586364
871.8000	-0.00610383
871.6000	-0.0062863
871.4000	-0.00602216
871.2000	-0.00565444
871.0000	-0.00564975
870.8000	-0.00586672
870.6000	-0.00599971
870.4000	-0.00657758
870.2000	-0.00631956
870.0000	-0.00569804
869.8000	-0.00624609
869.6000	-0.00619655
869.4000	-0.00598177
869.2000	-0.00629218
869.0000	-0.00635532
868.8000	-0.00629307
868.6000	-0.00611714
868.4000	-0.00571728
868.2000	-0.00521034
868.0000	-0.00541282
867.8000	-0.00584861
867.6000	-0.0059516
867.4000	-0.00587569
867.2000	-0.00600423
867.0000	-0.00616489
866.8000	-0.00612985
866.6000	-0.00588252
866.4000	-0.00587118
866.2000	-0.00641299
866.0000	-0.00634664
865.8000	-0.00605352
865.6000	-0.00590355
865.4000	-0.00593913
865.2000	-0.00640218
865.0000	-0.00647595
864.8000	-0.00636351
864.6000	-0.00643271
864.4000	-0.00630162
864.2000	-0.00622245
864.0000	-0.00631528
863.8000	-0.00647708
863.6000	-0.00632734
863.4000	-0.00572162
863.2000	-0.00571996
863.0000	-0.00611322
862.8000	-0.00610847
862.6000	-0.0062187
862.4000	-0.00625446
862.2000	-0.00634676
862.0000	-0.00672595
861.8000	-0.00630946
861.6000	-0.00588787
861.4000	-0.00616495
861.2000	-0.0063827
861.0000	-0.00670231
860.8000	-0.00661054
860.6000	-0.00644221
860.4000	-0.00642926
860.2000	-0.00608097
860.0000	-0.00639517
859.8000	-0.00689932
859.6000	-0.0068568
859.4000	-0.00654776
859.2000	-0.00631766
859.0000	-0.0064254
858.8000	-0.00644601
858.6000	-0.00670468
858.4000	-0.0068527
858.2000	-0.00692837
858.0000	-0.00658274
857.8000	-0.006164
857.6000	-0.00608952
857.4000	-0.0065028
857.2000	-0.00642505
857.0000	-0.00590284
856.8000	-0.00653891
856.6000	-0.00682395
856.4000	-0.00648135
856.2000	-0.00648224
856.0000	-0.00651307
855.8000	-0.00642766
855.6000	-0.00652067
855.4000	-0.00634967
855.2000	-0.00679817
855.0000	-0.00669868
854.8000	-0.00655667
854.6000	-0.00666768
854.4000	-0.00611856
854.2000	-0.00647767
854.0000	-0.00666732
853.8000	-0.00677631
853.6000	-0.00676301
853.4000	-0.00639636
853.2000	-0.00694381
853.0000	-0.00725683
852.8000	-0.00672672
852.6000	-0.00636446
852.4000	-0.00625802
852.2000	-0.00639677
852.0000	-0.00656552
851.8000	-0.00669714
851.6000	-0.00655168
851.4000	-0.00639042
851.2000	-0.0068837
851.0000	-0.0069842
850.8000	-0.00681391
850.6000	-0.00683785
850.4000	-0.00702067
850.2000	-0.007232
850.0000	-0.00652061
849.8000	-0.00620605
849.6000	-0.00655506
849.4000	-0.00655643
849.2000	-0.00673486
849.0000	-0.00660038
848.8000	-0.00639743
848.6000	-0.00660323
848.4000	-0.00655198
848.2000	-0.00644886
848.0000	-0.00607372
847.8000	-0.00620213
847.6000	-0.00697707
847.4000	-0.00681748
847.2000	-0.00631303
847.0000	-0.00663994
846.8000	-0.00653897
846.6000	-0.00622286
846.4000	-0.00647743
846.2000	-0.00664944
846.0000	-0.00668437
845.8000	-0.00645837
845.6000	-0.00612468
845.4000	-0.00625292
845.2000	-0.0063565
845.0000	-0.00690265
844.8000	-0.00723194
844.6000	-0.00674988
844.4000	-0.0067604
844.2000	-0.00672137
844.0000	-0.00713798
843.8000	-0.00729645
843.6000	-0.00661796
843.4000	-0.0065259
843.2000	-0.00651212
843.0000	-0.00654218
842.8000	-0.00702625
842.6000	-0.00720901
842.4000	-0.00703552
842.2000	-0.00631825
842.0000	-0.00630851
841.8000	-0.00672369
841.6000	-0.00642297
841.4000	-0.00647821
841.2000	-0.0065335
841.0000	-0.00638828
840.8000	-0.00658696
840.6000	-0.00701117
840.4000	-0.00717314
840.2000	-0.00697886
840.0000	-0.00682389
839.8000	-0.00652935
839.6000	-0.00661802
839.4000	-0.00675238
839.2000	-0.00640105
839.0000	-0.0065926
838.8000	-0.00683725
838.6000	-0.00668092
838.4000	-0.00626848
838.2000	-0.00634849
838.0000	-0.00717605
837.8000	-0.0070193
837.6000	-0.00653808
837.4000	-0.0065755
837.2000	-0.0069646
837.0000	-0.00721893
836.8000	-0.00704015
836.6000	-0.00691269
836.4000	-0.00676788
836.2000	-0.00687628
836.0000	-0.00679823
835.8000	-0.00643259
835.6000	-0.00639173
835.4000	-0.0068875
835.2000	-0.00677572
835.0000	-0.00660882
834.8000	-0.00667261
834.6000	-0.00638145
834.4000	-0.00649157
834.2000	-0.00664796
834.0000	-0.0063868
833.8000	-0.00674115
833.6000	-0.00709747
833.4000	-0.00685935
833.2000	-0.00695937
833.0000	-0.00667314
832.8000	-0.0063173
832.6000	-0.00649169
832.4000	-0.00624917
832.2000	-0.00614404
832.0000	-0.00668271
831.8000	-0.00688234
831.6000	-0.00645059
831.4000	-0.00656629
831.2000	-0.00685406
831.0000	-0.00631475
830.8000	-0.00622464
830.6000	-0.00661998
830.4000	-0.00675416
830.2000	-0.00666798
830.0000	-0.00643485
829.8000	-0.00614612
829.6000	-0.00664339
829.4000	-0.00656178
829.2000	-0.00575055
829.0000	-0.00619798
828.8000	-0.0064576
828.6000	-0.00643384
828.4000	-0.00649074
828.2000	-0.00625571
828.0000	-0.0063982
827.8000	-0.00657306
827.6000	-0.00670278
827.4000	-0.00652513
827.2000	-0.00628291
827.0000	-0.0063258
826.8000	-0.00627668
826.6000	-0.00660205
826.4000	-0.00649947
826.2000	-0.00607598
826.0000	-0.00625286
825.8000	-0.00640123
825.6000	-0.00628731
825.4000	-0.00630631
825.2000	-0.00649644
825.0000	-0.00618681
824.8000	-0.0063669
824.6000	-0.00687265
824.4000	-0.0067503
824.2000	-0.00651438
824.0000	-0.00608334
823.8000	-0.00617083
823.6000	-0.00705601
823.4000	-0.00738976
823.2000	-0.00666697
823.0000	-0.0061125
822.8000	-0.00635318
822.6000	-0.00664368
822.4000	-0.00658405
822.2000	-0.00638668
822.0000	-0.00653802
821.8000	-0.00677043
821.6000	-0.00639226
821.4000	-0.00613115
821.2000	-0.00629645
821.0000	-0.00668461
820.8000	-0.00675214
820.6000	-0.00678647
820.4000	-0.00677857
820.2000	-0.00656576
820.0000	-0.0068941
819.8000	-0.00654788
819.6000	-0.0065
819.4000	-0.00668324
819.2000	-0.00636898
819.0000	-0.00637789
818.8000	-0.0066321
818.6000	-0.00685537
818.4000	-0.00665479
818.2000	-0.00674608
818.0000	-0.00639838
817.8000	-0.00587902
817.6000	-0.00640022
817.4000	-0.00678451
817.2000	-0.00649781
817.0000	-0.00639689
816.8000	-0.00631445
816.6000	-0.00596265
816.4000	-0.00634266
816.2000	-0.00656748
816.0000	-0.00613905
815.8000	-0.00633987
815.6000	-0.00631053
815.4000	-0.00580875
815.2000	-0.00619708
815.0000	-0.00642558
814.8000	-0.00629835
814.6000	-0.00622963
814.4000	-0.00628873
814.2000	-0.00671906
814.0000	-0.00705637
813.8000	-0.00673147
813.6000	-0.00610039
813.4000	-0.00614594
813.2000	-0.00635258
813.0000	-0.00648985
812.8000	-0.00645932
812.6000	-0.00607235
812.4000	-0.00621419
812.2000	-0.00670789
812.0000	-0.0066754
811.8000	-0.00661084
811.6000	-0.00646995
811.4000	-0.00631255
811.2000	-0.00659569
811.0000	-0.00685804
810.8000	-0.00663703
810.6000	-0.00665604
810.4000	-0.00652828
810.2000	-0.00635924
810.0000	-0.00640604
809.8000	-0.00612896
809.6000	-0.00654835
809.4000	-0.00672654
809.2000	-0.0064927
809.0000	-0.00663317
808.8000	-0.00640574
808.6000	-0.00632455
808.4000	-0.00607633
808.2000	-0.00557218
808.0000	-0.00594144
807.8000	-0.0063887
807.6000	-0.00617826
807.4000	-0.00601717
807.2000	-0.00614012
807.0000	-0.00627721
806.8000	-0.00632645
806.6000	-0.00663638
806.4000	-0.00669399
806.2000	-0.00631671
806.0000	-0.00624139
805.8000	-0.00618722
805.6000	-0.00621728
805.4000	-0.00613804
805.2000	-0.00586037
805.0000	-0.00601195
804.8000	-0.00629758
804.6000	-0.00606148
804.4000	-0.00615735
804.2000	-0.00600031
804.0000	-0.00580662
803.8000	-0.00617232
803.6000	-0.00621948
803.4000	-0.00638638
803.2000	-0.00659967
803.0000	-0.00651563
802.8000	-0.00620011
802.6000	-0.00628279
802.4000	-0.00615022
802.2000	-0.00593723
802.0000	-0.00613876
801.8000	-0.0062784
801.6000	-0.00624211
801.4000	-0.00610449
801.2000	-0.00618093
801.0000	-0.00618271
800.8000	-0.00611037
800.6000	-0.00588235
800.4000	-0.00587664
800.2000	-0.006487
800.0000	-0.00656445
799.8000	-0.00614559
799.6000	-0.00627679
799.4000	-0.00610686
799.2000	-0.00604551
799.0000	-0.00638525
798.8000	-0.00616947
798.6000	-0.00590248
798.4000	-0.00586055
798.2000	-0.00596693
798.0000	-0.00598474
797.8000	-0.00582984
797.6000	-0.00574413
797.4000	-0.00610799
797.2000	-0.00600351
797.0000	-0.00607901
796.8000	-0.00652329
796.6000	-0.00627608
796.4000	-0.00622625
796.2000	-0.00632609
796.0000	-0.00619043
795.8000	-0.00586405
795.6000	-0.00562866
795.4000	-0.00559119
795.2000	-0.00591959
795.0000	-0.00606309
794.8000	-0.00626533
794.6000	-0.00625963
794.4000	-0.00604966
794.2000	-0.00630738
794.0000	-0.00595356
793.8000	-0.00576248
793.6000	-0.00567874
793.4000	-0.00540023
793.2000	-0.00523564
793.0000	-0.00554005
792.8000	-0.00597714
792.6000	-0.00585241
792.4000	-0.00579812
792.2000	-0.00591697
792.0000	-0.00606428
791.8000	-0.00602775
791.6000	-0.00590301
791.4000	-0.00580275
791.2000	-0.00563205
791.0000	-0.00572162
790.8000	-0.00583964
790.6000	-0.00573926
790.4000	-0.00585669
790.2000	-0.00605976
790.0000	-0.00565729
789.8000	-0.00561512
789.6000	-0.00584184
789.4000	-0.00577531
789.2000	-0.00592749
789.0000	-0.00577169
788.8000	-0.00551219
788.6000	-0.00593277
788.4000	-0.00592725
788.2000	-0.0057572
788.0000	-0.00565723
787.8000	-0.00562581
787.6000	-0.00619762
787.4000	-0.00609546
787.2000	-0.00587165
787.0000	-0.00604889
786.8000	-0.0059023
786.6000	-0.00562486
786.4000	-0.00564227
786.2000	-0.00564767
786.0000	-0.00588205
785.8000	-0.00610591
785.6000	-0.00589814
785.4000	-0.00562071
785.2000	-0.00541751
785.0000	-0.00542274
784.8000	-0.00574425
784.6000	-0.00582954
784.4000	-0.00572613
784.2000	-0.00576842
784.0000	-0.00583417
783.8000	-0.00571342
783.6000	-0.00580578
783.4000	-0.00590385
783.2000	-0.00564114
783.0000	-0.00577923
782.8000	-0.00579313
782.6000	-0.0057509
782.4000	-0.00592279
782.2000	-0.0059285
782.0000	-0.00596835
781.8000	-0.00581422
781.6000	-0.00570576
781.4000	-0.00598623
781.2000	-0.00591151
781.0000	-0.00551777
780.8000	-0.00537463
780.6000	-0.00578054
780.4000	-0.0060562
780.2000	-0.00586013
780.0000	-0.0056428
779.8000	-0.00525976
779.6000	-0.00560663
779.4000	-0.0059535
779.2000	-0.005944
779.0000	-0.00583738
778.8000	-0.00579248
778.6000	-0.00604812
778.4000	-0.00578357
778.2000	-0.00554177
778.0000	-0.0057079
777.8000	-0.00590331
777.6000	-0.00560538
777.4000	-0.00545481
777.2000	-0.00543967
777.0000	-0.00538086
776.8000	-0.00556268
776.6000	-0.00573605
776.4000	-0.00579509
776.2000	-0.00544733
776.0000	-0.00554872
775.8000	-0.0057664
775.6000	-0.00544068
775.4000	-0.00524413
775.2000	-0.00560105
775.0000	-0.00542808
774.8000	-0.00526558
774.6000	-0.00561073
774.4000	-0.00565492
774.2000	-0.00554313
774.0000	-0.00546687
773.8000	-0.00546954
773.6000	-0.00533364
773.4000	-0.00514221
773.2000	-0.00504017
773.0000	-0.00512071
772.8000	-0.00501403
772.6000	-0.00493296
772.4000	-0.00508745
772.2000	-0.00529991
772.0000	-0.00525993
771.8000	-0.00529189
771.6000	-0.00553749
771.4000	-0.00560384
771.2000	-0.00543129
771.0000	-0.00527662
770.8000	-0.00531357
770.6000	-0.00544068
770.4000	-0.00542007
770.2000	-0.00491377
770.0000	-0.00491603
769.8000	-0.00514768
769.6000	-0.00526385
769.4000	-0.00519709
769.2000	-0.00499461
769.0000	-0.00486192
768.8000	-0.00491265
768.6000	-0.0053912
768.4000	-0.00526647
768.2000	-0.0048232
768.0000	-0.00501261
767.8000	-0.00555941
767.6000	-0.00560948
767.4000	-0.00522447
767.2000	-0.00522234
767.0000	-0.00552514
766.8000	-0.00540296
766.6000	-0.00517428
766.4000	-0.00500792
766.2000	-0.00508091
766.0000	-0.00558032
765.8000	-0.00511679
765.6000	-0.00456209
765.4000	-0.0049566
765.2000	-0.00518272
765.0000	-0.00505733
764.8000	-0.00519484
764.6000	-0.00513865
764.4000	-0.00496687
764.2000	-0.00532741
764.0000	-0.00510147
763.8000	-0.00496456
763.6000	-0.0049304
763.4000	-0.00481648
763.2000	-0.0050644
763.0000	-0.00504872
762.8000	-0.00512879
762.6000	-0.0051377
762.4000	-0.00498802
762.2000	-0.0050394
762.0000	-0.00507741
761.8000	-0.00509695
761.6000	-0.00519733
761.4000	-0.00507123
761.2000	-0.00478209
761.0000	-0.0047916
760.8000	-0.0049626
760.6000	-0.00513829
760.4000	-0.0050767
760.2000	-0.00482177
760.0000	-0.00491003
759.8000	-0.0050878
759.6000	-0.00479985
759.4000	-0.00470042
759.2000	-0.0050372
759.0000	-0.00500162
758.8000	-0.00500435
758.6000	-0.00489453
758.4000	-0.00481262
758.2000	-0.00516573
758.0000	-0.00537582
757.8000	-0.00530805
757.6000	-0.00503886
757.4000	-0.00497056
757.2000	-0.00507598
757.0000	-0.00511447
756.8000	-0.00500922
756.6000	-0.00503548
756.4000	-0.00504219
756.2000	-0.00485735
756.0000	-0.00465831
755.8000	-0.00469977
755.6000	-0.00470149
755.4000	-0.00468076
755.2000	-0.0047755
755.0000	-0.00476635
754.8000	-0.00484458
754.6000	-0.00496972
754.4000	-0.00493421
754.2000	-0.0047812
754.0000	-0.00471658
753.8000	-0.00478488
753.6000	-0.00480074
753.4000	-0.00462927
753.2000	-0.0046769
753.0000	-0.00470411
752.8000	-0.00449687
752.6000	-0.00474402
752.4000	-0.00488532
752.2000	-0.00465136
752.0000	-0.00463598
751.8000	-0.00441223
751.6000	-0.0043428
751.4000	-0.00450721
751.2000	-0.00490385
751.0000	-0.00495779
750.8000	-0.00483579
750.6000	-0.00479427
750.4000	-0.0045514
750.2000	-0.00447038
750.0000	-0.00446854
749.8000	-0.00443195
749.6000	-0.00418148
749.4000	-0.00421973
749.2000	-0.00436739
749.0000	-0.00439109
748.8000	-0.00443878
748.6000	-0.00442197
748.4000	-0.00440624
748.2000	-0.00421682
748.0000	-0.00424456
747.8000	-0.00465392
747.6000	-0.00466378
747.4000	-0.00437749
747.2000	-0.00428245
747.0000	-0.00435569
746.8000	-0.0043213
746.6000	-0.00420773
746.4000	-0.0044389
746.2000	-0.00445357
746.0000	-0.00439186
745.8000	-0.00437755
745.6000	-0.00436448
745.4000	-0.00437683
745.2000	-0.00433021
745.0000	-0.00441301
744.8000	-0.00450228
744.6000	-0.00447365
744.4000	-0.00426333
744.2000	-0.00430217
744.0000	-0.00420696
743.8000	-0.00421943
743.6000	-0.00422335
743.4000	-0.00404921
743.2000	-0.00437238
743.0000	-0.0042306
742.8000	-0.00399159
742.6000	-0.00394752
742.4000	-0.00413575
742.2000	-0.00433567
742.0000	-0.00419775
741.8000	-0.00438723
741.6000	-0.00443855
741.4000	-0.0041459
741.2000	-0.00396492
741.0000	-0.00378644
740.8000	-0.00376981
740.6000	-0.00405081
740.4000	-0.00397947
740.2000	-0.00408562
740.0000	-0.00391444
739.8000	-0.00403946
739.6000	-0.0039765
739.4000	-0.00390832
739.2000	-0.00404226
739.0000	-0.00411609
738.8000	-0.00414519
738.6000	-0.00410539
738.4000	-0.00409043
738.2000	-0.00414994
738.0000	-0.00386252
737.8000	-0.00375044
737.6000	-0.00396415
737.4000	-0.00410379
737.2000	-0.00417756
737.0000	-0.00403157
736.8000	-0.00379018
736.6000	-0.00372544
736.4000	-0.00373429
736.2000	-0.00385082
736.0000	-0.00397074
735.8000	-0.00368327
735.6000	-0.00353555
735.4000	-0.00370732
735.2000	-0.00372627
735.0000	-0.00344265
734.8000	-0.0034379
734.6000	-0.00355592
734.4000	-0.00353923
734.2000	-0.00353757
734.0000	-0.00361282
733.8000	-0.0039332
733.6000	-0.00392911
733.4000	-0.0035302
733.2000	-0.00337714
733.0000	-0.00350615
732.8000	-0.00339187
732.6000	-0.00334441
732.4000	-0.00336383
732.2000	-0.00347508
732.0000	-0.00367584
731.8000	-0.00358657
731.6000	-0.00358954
731.4000	-0.00353311
731.2000	-0.00367198
731.0000	-0.00365802
730.8000	-0.00339021
730.6000	-0.00345661
730.4000	-0.00341985
730.2000	-0.00351434
730.0000	-0.00364894
729.8000	-0.00349314
729.6000	-0.00347425
729.4000	-0.00365196
729.2000	-0.00353579
729.0000	-0.00339009
728.8000	-0.00344022
728.6000	-0.00341907
728.4000	-0.00324296
728.2000	-0.0032201
728.0000	-0.0033677
727.8000	-0.00332582
727.6000	-0.00317757
727.4000	-0.00319931
727.2000	-0.00336354
727.0000	-0.00346772
726.8000	-0.00345222
726.6000	-0.00318131
726.4000	-0.00313938
726.2000	-0.00338344
726.0000	-0.00350045
725.8000	-0.0033927
725.6000	-0.00328864
725.4000	-0.00324528
725.2000	-0.00312215
725.0000	-0.00331323
724.8000	-0.00346528
724.6000	-0.00321891
724.4000	-0.00296463
724.2000	-0.00286497
724.0000	-0.00317501
723.8000	-0.00326144
723.6000	-0.00313326
723.4000	-0.00314431
723.2000	-0.00297925
723.0000	-0.00300265
722.8000	-0.00288296
722.6000	-0.00293488
722.4000	-0.00309928
722.2000	-0.00288291
722.0000	-0.00268428
721.8000	-0.00272705
721.6000	-0.00293678
721.4000	-0.0030058
721.2000	-0.0029211
721.0000	-0.00282868
720.8000	-0.00287501
720.6000	-0.00300793
720.4000	-0.00291931
720.2000	-0.00274386
720.0000	-0.00277415
719.8000	-0.0028326
719.6000	-0.00287322
719.4000	-0.0027533
719.2000	-0.00269581
719.0000	-0.00282
718.8000	-0.0027767
718.6000	-0.00258955
718.4000	-0.00256959
718.2000	-0.00270359
718.0000	-0.00253265
717.8000	-0.00253134
717.6000	-0.00279043
717.4000	-0.00273388
717.2000	-0.00257494
717.0000	-0.00239069
716.8000	-0.0023244
716.6000	-0.00241451
716.4000	-0.00254447
716.2000	-0.00247604
716.0000	-0.00241492
715.8000	-0.00244925
715.6000	-0.00219385
715.4000	-0.00222486
715.2000	-0.00237406
715.0000	-0.00231627
714.8000	-0.00229875
714.6000	-0.0023263
714.4000	-0.00239538
714.2000	-0.00239705
714.0000	-0.00229358
713.8000	-0.00213986
713.6000	-0.00200889
713.4000	-0.00227891
713.2000	-0.00237952
713.0000	-0.00228372
712.8000	-0.00230136
712.6000	-0.00230961
712.4000	-0.0022934
712.2000	-0.00224012
712.0000	-0.00218245
711.8000	-0.00194219
711.6000	-0.00204893
711.4000	-0.00211462
711.2000	-0.00197225
711.0000	-0.00189652
710.8000	-0.00183979
710.6000	-0.00178449
710.4000	-0.00179216
710.2000	-0.00190685
710.0000	-0.00177855
709.8000	-0.00180968
709.6000	-0.00197718
709.4000	-0.0019195
709.2000	-0.00170568
709.0000	-0.00153331
708.8000	-0.00170021
708.6000	-0.00175361
708.4000	-0.00167295
708.2000	-0.00191035
708.0000	-0.00192223
707.8000	-0.00174797
707.6000	-0.00171055
707.4000	-0.00163814
707.2000	-0.00171791
707.0000	-0.0016932
706.8000	-0.0015083
706.6000	-0.0014362
706.4000	-0.00151662
706.2000	-0.00144861
706.0000	-0.00135257
705.8000	-0.00142622
705.6000	-0.00148995
705.4000	-0.00151086
705.2000	-0.00146197
705.0000	-0.00124262
704.8000	-0.00106717
704.6000	-0.00115894
704.4000	-0.00112264
704.2000	-0.00113013
704.0000	-0.00135684
703.8000	-0.00121964
703.6000	-0.000944991
703.4000	-0.00106069
703.2000	-0.00103842
703.0000	-0.000995774
702.8000	-0.00102773
702.6000	-0.000937745
702.4000	-0.0010405
702.2000	-0.0010446
702.0000	-0.000979084
701.8000	-0.000800599
701.6000	-0.000952237
701.4000	-0.000916362
701.2000	-0.000675808
701.0000	-0.000805826
700.8000	-0.00085263
700.6000	-0.000773396
700.4000	-0.000771614
700.2000	-0.000947723
700.0000	-0.000878705
699.8000	-0.000807964
699.6000	-0.000690716
699.4000	-0.000465962
699.2000	-0.000485503
699.0000	-0.000628885
698.8000	-0.000537772
698.6000	-0.000430265
698.4000	-0.00035008
698.2000	-0.000406447
698.0000	-0.00062253
697.8000	-0.000451826
697.6000	-0.000230278
697.4000	-0.00025172
697.2000	-0.000301969
697.0000	-0.00038358
696.8000	-0.00044452
696.6000	-0.000399973
696.4000	-0.000329351
696.2000	-0.000144867
696.0000	-0.000110061
695.8000	-0.000166071
695.6000	2.6253E-05
695.4000	2.79161E-06
695.2000	-0.000212816
695.0000	-0.000150688
694.8000	1.01567E-05
694.6000	6.96715E-05
694.4000	8.27981E-05
694.2000	0.000187632
694.0000	0.000367364
693.8000	0.00025475
693.6000	0.000125147
693.4000	0.000143798
693.2000	0.000200105
693.0000	0.000279043
692.8000	0.000379362
692.6000	0.000544068
692.4000	0.000494591
692.2000	0.000480217
692.0000	0.000464536
691.8000	0.000366711
691.6000	0.00054971
691.4000	0.000528387
691.2000	0.000394033
691.0000	0.000552264
690.8000	0.000648486
690.6000	0.000682163
690.4000	0.000732769
690.2000	0.000746608
690.0000	0.000823942
689.8000	0.000912976
689.6000	0.000987281
689.4000	0.00101033
689.2000	0.00102862
689.0000	0.000940714
688.8000	0.00088607
688.6000	0.000982113
688.4000	0.000986746
688.2000	0.00100991
688.0000	0.00113345
687.8000	0.00105927
687.6000	0.00104852
687.4000	0.0013724
687.2000	0.00145122
687.0000	0.00142455
686.8000	0.00142907
686.6000	0.00142942
686.4000	0.00140377
686.2000	0.00129252
686.0000	0.00153141
685.8000	0.00158914
685.6000	0.00150272
685.4000	0.00148211
685.2000	0.00159597
685.0000	0.00187733
684.8000	0.00190275
684.6000	0.00180249
684.4000	0.00177279
684.2000	0.00166606
684.0000	0.0016461
683.8000	0.00192508
683.6000	0.00209347
683.4000	0.00218179
683.2000	0.00219106
683.0000	0.00212899
682.8000	0.0019457
682.6000	0.00194801
682.4000	0.00202938
682.2000	0.00213564
682.0000	0.00236895
681.8000	0.00246731
681.6000	0.00240168
681.4000	0.00228889
681.2000	0.00253318
681.0000	0.00257553
680.8000	0.00250283
680.6000	0.00263012
680.4000	0.00274659
680.2000	0.00289134
680.0000	0.00289401
679.8000	0.00290233
679.6000	0.00290613
679.4000	0.00280421
679.2000	0.00276108
679.0000	0.0027068
678.8000	0.00277552
678.6000	0.00292935
678.4000	0.00294687
678.2000	0.00301358
678.0000	0.00297527
677.8000	0.00314229
677.6000	0.00352011
677.4000	0.00350977
677.2000	0.00347675
677.0000	0.00352818
676.8000	0.00341895
676.6000	0.0034379
676.4000	0.00350347
676.2000	0.0036234
676.0000	0.0036307
675.8000	0.00356572
675.6000	0.00376482
675.4000	0.00378311
675.2000	0.00363795
675.0000	0.00366004
674.8000	0.00399272
674.6000	0.00414679
674.4000	0.00396944
674.2000	0.00412244
674.0000	0.00422615
673.8000	0.00425822
673.6000	0.00444478
673.4000	0.00442803
673.2000	0.00439436
673.0000	0.00449266
672.8000	0.00450495
672.6000	0.00440445
672.4000	0.00449824
672.2000	0.00461293
672.0000	0.00474248
671.8000	0.00490587
671.6000	0.00484713
671.4000	0.00464697
671.2000	0.00468926
671.0000	0.00495939
670.8000	0.00497596
670.6000	0.00503928
670.4000	0.00517607
670.2000	0.0053011
670.0000	0.00539987
669.8000	0.00534558
669.6000	0.00523053
669.4000	0.005242
669.2000	0.00548932
669.0000	0.00561221
668.8000	0.00566501
668.6000	0.00553322
668.4000	0.0055701
668.2000	0.00571408
668.0000	0.00570368
667.8000	0.00595267
667.6000	0.00601403
667.4000	0.00601117
667.2000	0.0060161
667.0000	0.00606938
666.8000	0.00600423
666.6000	0.00581054
666.4000	0.00613038
666.2000	0.00639588
666.0000	0.00632882
665.8000	0.00641394
665.6000	0.00661547
665.4000	0.00666358
665.2000	0.00672054
665.0000	0.00678172
664.8000	0.00676717
664.6000	0.00674656
664.4000	0.00684913
664.2000	0.00697494
664.0000	0.00698604
663.8000	0.00705114
663.6000	0.00705548
663.4000	0.00703409
663.2000	0.00720486
663.0000	0.00738501
662.8000	0.00739469
662.6000	0.00725059
662.4000	0.00729894
662.2000	0.00738287
662.0000	0.00740461
661.8000	0.00772499
661.6000	0.00802393
661.4000	0.00798544
661.2000	0.0079757
661.0000	0.00795978
660.8000	0.00804858
660.6000	0.00808101
660.4000	0.00783695
660.2000	0.00793056
660.0000	0.00815573
659.8000	0.00822576
659.6000	0.00841428
659.4000	0.00854329
659.2000	0.00833914
659.0000	0.00859942
658.8000	0.00882833
658.6000	0.0087779
658.4000	0.0088629
658.2000	0.00895294
658.0000	0.00885619
657.8000	0.00889176
657.6000	0.00917413
657.4000	0.0091521
657.2000	0.00913036
657.0000	0.00920704
656.8000	0.00930801
656.6000	0.00941635
656.4000	0.00954162
656.2000	0.00963576
656.0000	0.00965453
655.8000	0.00973738
655.6000	0.00991635
655.4000	0.00999623
655.2000	0.0100873
655.0000	0.0100427
654.8000	0.010091
654.6000	0.0103711
654.4000	0.0103449
654.2000	0.0102817
654.0000	0.0103956
653.8000	0.010347
653.6000	0.0103264
653.4000	0.0104263
653.2000	0.0106363
653.0000	0.0107514
652.8000	0.0108287
652.6000	0.0110458
652.4000	0.0111046
652.2000	0.0111121
652.0000	0.011196
651.8000	0.0113615
651.6000	0.0114731
651.4000	0.0115663
651.2000	0.0116564
651.0000	0.0117498
650.8000	0.0116825
650.6000	0.0115698
650.4000	0.011647
650.2000	0.0119258
650.0000	0.0118976
649.8000	0.0119624
649.6000	0.0121295
649.4000	0.0120598
649.2000	0.0122846
649.0000	0.0124214
648.8000	0.0123519
648.6000	0.0124218
648.4000	0.0126917
648.2000	0.0128952
648.0000	0.0128292
647.8000	0.012677
647.6000	0.0128294
647.4000	0.0130264
647.2000	0.0130826
647.0000	0.013219
646.8000	0.013336
646.6000	0.0134471
646.4000	0.0136186
646.2000	0.0135563
646.0000	0.0135783
645.8000	0.0137658
645.6000	0.0138991
645.4000	0.0140476
645.2000	0.0141758
645.0000	0.0142647
644.8000	0.0141725
644.6000	0.0142509
644.4000	0.0144332
644.2000	0.0144451
644.0000	0.0144118
643.8000	0.0144984
643.6000	0.014536
643.4000	0.0147229
643.2000	0.0148703
643.0000	0.0148934
642.8000	0.0151156
642.6000	0.0150947
642.4000	0.0151457
642.2000	0.0153516
642.0000	0.015513
641.8000	0.0156461
641.6000	0.0156562
641.4000	0.0157341
641.2000	0.0158086
641.0000	0.0158267
640.8000	0.0159752
640.6000	0.0161266
640.4000	0.0161102
640.2000	0.0160782
640.0000	0.016445
639.8000	0.0167195
639.6000	0.0167132
639.4000	0.0168066
639.2000	0.0168775
639.0000	0.0169067
638.8000	0.0169624
638.6000	0.0169593
638.4000	0.0169441
638.2000	0.0171122
638.0000	0.0173606
637.8000	0.0176532
637.6000	0.0177116
637.4000	0.0177025
637.2000	0.0177956
637.0000	0.017915
636.8000	0.0180149
636.6000	0.018045
636.4000	0.0181554
636.2000	0.0184636
636.0000	0.0184532
635.8000	0.0183194
635.6000	0.0186212
635.4000	0.0188682
635.2000	0.0188957
635.0000	0.0188399
634.8000	0.0190496
634.6000	0.0191891
634.4000	0.019133
634.2000	0.0192439
634.0000	0.0193314
633.8000	0.0195102
633.6000	0.0196938
633.4000	0.0197192
633.2000	0.0197548
633.0000	0.0199601
632.8000	0.0202593
632.6000	0.0203133
632.4000	0.0202722
632.2000	0.0202903
632.0000	0.0205001
631.8000	0.0206537
631.6000	0.020693
631.4000	0.0208673
631.2000	0.0209891
631.0000	0.0211073
630.8000	0.0212152
630.6000	0.0213512
630.4000	0.0214121
630.2000	0.0215656
630.0000	0.021755
629.8000	0.0217863
629.6000	0.0218509
629.4000	0.0219866
629.2000	0.022186
629.0000	0.0223938
628.8000	0.0225357
628.6000	0.0225605
628.4000	0.0226793
628.2000	0.0229352
628.0000	0.0229722
627.8000	0.0228761
627.6000	0.0230522
627.4000	0.0233343
627.2000	0.0234912
627.0000	0.0235498
626.8000	0.0236229
626.6000	0.0237913
626.4000	0.023806
626.2000	0.0238934
626.0000	0.024107
625.8000	0.0242552
625.6000	0.0243878
625.4000	0.0244228
625.2000	0.0244197
625.0000	0.0245117
624.8000	0.024714
624.6000	0.0249021
624.4000	0.0250333
624.2000	0.0250664
624.0000	0.0252846
623.8000	0.0256248
623.6000	0.0256533
623.4000	0.0256382
623.2000	0.0257102
623.0000	0.0259229
622.8000	0.0261912
622.6000	0.0262908
622.4000	0.0263557
622.2000	0.0264025
622.0000	0.0265559
621.8000	0.0267921
621.6000	0.0267473
621.4000	0.0267207
621.2000	0.0270471
621.0000	0.0273587
620.8000	0.0274389
620.6000	0.0275098
620.4000	0.0276298
620.2000	0.0277126
620.0000	0.0278615
619.8000	0.0280309
619.6000	0.0281474
619.4000	0.0280729
619.2000	0.0283213
619.0000	0.0287238
618.8000	0.0288947
618.6000	0.0288761
618.4000	0.0289728
618.2000	0.0292398
618.0000	0.0294637
617.8000	0.0294884
617.6000	0.0295046
617.4000	0.0296489
617.2000	0.0297516
617.0000	0.0299913
616.8000	0.0302113
616.6000	0.0304149
616.4000	0.0306372
616.2000	0.0306682
616.0000	0.0307661
615.8000	0.0309302
615.6000	0.0310093
615.4000	0.0310582
615.2000	0.0312267
615.0000	0.0313949
614.8000	0.0315039
614.6000	0.0316473
614.4000	0.031811
614.2000	0.0320441
614.0000	0.0321533
613.8000	0.0322632
613.6000	0.0324663
613.4000	0.0324918
613.2000	0.0327172
613.0000	0.0329459
612.8000	0.0329504
612.6000	0.033137
612.4000	0.0333118
612.2000	0.033397
612.0000	0.0335579
611.8000	0.0337776
611.6000	0.0339323
611.4000	0.0340482
611.2000	0.0341793
611.0000	0.0343444
610.8000	0.0346064
610.6000	0.0347717
610.4000	0.0348074
610.2000	0.0348247
610.0000	0.0349015
609.8000	0.0350772
609.6000	0.0354148
609.4000	0.035595
609.2000	0.0355739
609.0000	0.0357129
608.8000	0.0358903
608.6000	0.0360569
608.4000	0.0363245
608.2000	0.0364597
608.0000	0.0365569
607.8000	0.0368074
607.6000	0.0368812
607.4000	0.0370018
607.2000	0.0372959
607.0000	0.0375366
606.8000	0.0375743
606.6000	0.0376541
606.4000	0.0378469
606.2000	0.0381154
606.0000	0.0384128
605.8000	0.038552
605.6000	0.0386358
605.4000	0.0386795
605.2000	0.0387658
605.0000	0.0389962
604.8000	0.0391033
604.6000	0.039341
604.4000	0.0396925
604.2000	0.0398
604.0000	0.0398781
603.8000	0.0398854
603.6000	0.0400954
603.4000	0.0403019
603.2000	0.0404136
603.0000	0.0405649
602.8000	0.0406392
602.6000	0.041015
602.4000	0.0412023
602.2000	0.0412211
602.0000	0.0416209
601.8000	0.0419113
601.6000	0.0418784
601.4000	0.0418515
601.2000	0.0421918
601.0000	0.0424418
600.8000	0.0424502
600.6000	0.0426667
600.4000	0.0430078
600.2000	0.0431412
600.0000	0.0432637
599.8000	0.0434138
599.6000	0.0436029
599.4000	0.0438155
599.2000	0.0439468
599.0000	0.0442259
598.8000	0.0445429
598.6000	0.0447363
598.4000	0.044723
598.2000	0.0448338
598.0000	0.0449521
597.8000	0.0451942
597.6000	0.0454955
597.4000	0.0455917
597.2000	0.0458029
597.0000	0.0460955
596.8000	0.0464225
596.6000	0.0465548
596.4000	0.0466542
596.2000	0.0467966
596.0000	0.0469875
595.8000	0.0472225
595.6000	0.0472984
595.4000	0.0472443
595.2000	0.0473754
595.0000	0.0478984
594.8000	0.0482345
594.6000	0.0483551
594.4000	0.0485079
594.2000	0.0487469
594.0000	0.0491171
593.8000	0.0492833
593.6000	0.049443
593.4000	0.0495875
593.2000	0.0497189
593.0000	0.0498858
592.8000	0.0500963
592.6000	0.0504016
592.4000	0.0505351
592.2000	0.0507678
592.0000	0.0510789
591.8000	0.0512762
591.6000	0.0515818
591.4000	0.0517538
591.2000	0.05192
591.0000	0.0521449
590.8000	0.0522324
590.6000	0.0524222
590.4000	0.0526584
590.2000	0.0528967
590.0000	0.0531189
589.8000	0.053338
589.6000	0.0536451
589.4000	0.053828
589.2000	0.0539779
589.0000	0.0542223
588.8000	0.054445
588.6000	0.0546279
588.4000	0.0547725
588.2000	0.0550291
588.0000	0.0553167
587.8000	0.055589
587.6000	0.0558459
587.4000	0.0561215
587.2000	0.0564458
587.0000	0.0566212
586.8000	0.0567327
586.6000	0.0570214
586.4000	0.0571855
586.2000	0.0574104
586.0000	0.0578755
585.8000	0.0579813
585.6000	0.0580665
585.4000	0.0584247
585.2000	0.0585976
585.0000	0.0589622
584.8000	0.0593516
584.6000	0.0595428
584.4000	0.0597371
584.2000	0.0600573
584.0000	0.0603089
583.8000	0.0604455
583.6000	0.0606649
583.4000	0.0608908
583.2000	0.0612881
583.0000	0.0615806
582.8000	0.0616901
582.6000	0.0618675
582.4000	0.0621225
582.2000	0.0624005
582.0000	0.0627403
581.8000	0.0631426
581.6000	0.0634482
581.4000	0.0636471
581.2000	0.0640194
581.0000	0.0642818
580.8000	0.0644211
580.6000	0.0647101
580.4000	0.0649286
580.2000	0.0650026
580.0000	0.0652813
579.8000	0.0657296
579.6000	0.0659828
579.4000	0.0661894
579.2000	0.0665291
579.0000	0.0667378
578.8000	0.0670567
578.6000	0.0674314
578.4000	0.0675737
578.2000	0.0678284
578.0000	0.0680006
577.8000	0.0683863
577.6000	0.0688531
577.4000	0.0689809
577.2000	0.0692543
577.0000	0.0695918
576.8000	0.0698829
576.6000	0.0701905
576.4000	0.0705156
576.2000	0.0708596
576.0000	0.0710702
575.8000	0.0712758
575.6000	0.0715549
575.4000	0.0718655
575.2000	0.0722588
575.0000	0.0726361
574.8000	0.0728704
574.6000	0.0730395
574.4000	0.0732715
574.2000	0.0736451
574.0000	0.0740095
573.8000	0.0744022
573.6000	0.0747418
573.4000	0.0749638
573.2000	0.075216
573.0000	0.0754696
572.8000	0.075776
572.6000	0.0761785
572.4000	0.0764322
572.2000	0.0765925
572.0000	0.0768677
571.8000	0.0771461
571.6000	0.0775375
571.4000	0.0780027
571.2000	0.078353
571.0000	0.0786622
570.8000	0.0788266
570.6000	0.0791156
570.4000	0.0795316
570.2000	0.0798719
570.0000	0.0802875
569.8000	0.0805484
569.6000	0.0807325
569.4000	0.0810559
569.2000	0.0816054
569.0000	0.081994
568.8000	0.0822444
568.6000	0.0824675
568.4000	0.0827647
568.2000	0.0831615
568.0000	0.083498
567.8000	0.0837844
567.6000	0.0841417
567.4000	0.0845125
567.2000	0.0848001
567.0000	0.085113
566.8000	0.0854694
566.6000	0.085894
566.4000	0.0861041
566.2000	0.0863944
566.0000	0.0867968
565.8000	0.0872162
565.6000	0.0876162
565.4000	0.0878951
565.2000	0.0884264
565.0000	0.0887023
564.8000	0.088831
564.6000	0.0894021
564.4000	0.0897709
564.2000	0.0899809
564.0000	0.0904696
563.8000	0.0907633
563.6000	0.0908825
563.4000	0.091314
563.2000	0.091862
563.0000	0.0923065
562.8000	0.0925031
562.6000	0.0926725
562.4000	0.0931523
562.2000	0.093614
562.0000	0.0939216
561.8000	0.0942714
561.6000	0.0946518
561.4000	0.0949725
561.2000	0.0953024
561.0000	0.0957753
560.8000	0.0961896
560.6000	0.0966068
560.4000	0.0968711
560.2000	0.0970842
560.0000	0.0977222
559.8000	0.0981501
559.6000	0.0983613
559.4000	0.0986733
559.2000	0.0990729
559.0000	0.0995356
558.8000	0.0997555
558.6000	0.100092
558.4000	0.100601
558.2000	0.101045
558.0000	0.101482
557.8000	0.101763
557.6000	0.102068
557.4000	0.10254
557.2000	0.102944
557.0000	0.103264
556.8000	0.103618
556.6000	0.103936
556.4000	0.104335
556.2000	0.104773
556.0000	0.105124
555.8000	0.105502
555.6000	0.105893
555.4000	0.106181
555.2000	0.106469
555.0000	0.106867
554.8000	0.107294
554.6000	0.107512
554.4000	0.107839
554.2000	0.108519
554.0000	0.10905
553.8000	0.109398
553.6000	0.109764
553.4000	0.110128
553.2000	0.110486
553.0000	0.11079
552.8000	0.1111
552.6000	0.111612
552.4000	0.112207
552.2000	0.112538
552.0000	0.112835
551.8000	0.113202
551.6000	0.113517
551.4000	0.113916
551.2000	0.114277
551.0000	0.114864
550.8000	0.115348
550.6000	0.115591
550.4000	0.115911
550.2000	0.116172
550.0000	0.116593
549.8000	0.116993
549.6000	0.117457
549.4000	0.11791
549.2000	0.118277
549.0000	0.11868
548.8000	0.119133
548.6000	0.119587
548.4000	0.119872
548.2000	0.120319
548.0000	0.120681
547.8000	0.120996
547.6000	0.121521
547.4000	0.121891
547.2000	0.1221
547.0000	0.122543
546.8000	0.123009
546.6000	0.123464
546.4000	0.123947
546.2000	0.124278
546.0000	0.124598
545.8000	0.125014
545.6000	0.125491
545.4000	0.125911
545.2000	0.126372
545.0000	0.126664
544.8000	0.126973
544.6000	0.127451
544.4000	0.127749
544.2000	0.128214
544.0000	0.128693
543.8000	0.129043
543.6000	0.129578
543.4000	0.129973
543.2000	0.130345
543.0000	0.130826
542.8000	0.131115
542.6000	0.131587
542.4000	0.132196
542.2000	0.132654
542.0000	0.132976
541.8000	0.133194
541.6000	0.133688
541.4000	0.134153
541.2000	0.13452
541.0000	0.134968
540.8000	0.135349
540.6000	0.135775
540.4000	0.13625
540.2000	0.136687
540.0000	0.137013
539.8000	0.137422
539.6000	0.137898
539.4000	0.138259
539.2000	0.138621
539.0000	0.139213
538.8000	0.139835
538.6000	0.14018
538.4000	0.140402
538.2000	0.140679
538.0000	0.141143
537.8000	0.141696
537.6000	0.142052
537.4000	0.142268
537.2000	0.142761
537.0000	0.143337
536.8000	0.14373
536.6000	0.14411
536.4000	0.144563
536.2000	0.145076
536.0000	0.145326
535.8000	0.145611
535.6000	0.146233
535.4000	0.146712
535.2000	0.146953
535.0000	0.147256
534.8000	0.147788
534.6000	0.148325
534.4000	0.148626
534.2000	0.148975
534.0000	0.149362
533.8000	0.1499
533.6000	0.150346
533.4000	0.150717
533.2000	0.151091
533.0000	0.151439
532.8000	0.152139
532.6000	0.152653
532.4000	0.152866
532.2000	0.15315
532.0000	0.153632
531.8000	0.154062
531.6000	0.15449
531.4000	0.154912
531.2000	0.15529
531.0000	0.155806
530.8000	0.15623
530.6000	0.156585
530.4000	0.156932
530.2000	0.15727
530.0000	0.157815
529.8000	0.158076
529.6000	0.158229
529.4000	0.158673
529.2000	0.159231
529.0000	0.159745
528.8000	0.160011
528.6000	0.160412
528.4000	0.160913
528.2000	0.161301
528.0000	0.161525
527.8000	0.161868
527.6000	0.162303
527.4000	0.162834
527.2000	0.163202
527.0000	0.163492
526.8000	0.163967
526.6000	0.16437
526.4000	0.16472
526.2000	0.165126
526.0000	0.165591
525.8000	0.165847
525.6000	0.1661
525.4000	0.166472
525.2000	0.166898
525.0000	0.167395
524.8000	0.167858
524.6000	0.168193
524.4000	0.168544
524.2000	0.168911
524.0000	0.169174
523.8000	0.169404
523.6000	0.169951
523.4000	0.17047
523.2000	0.170831
523.0000	0.171234
522.8000	0.171496
522.6000	0.171765
522.4000	0.172163
522.2000	0.172533
522.0000	0.172766
521.8000	0.173084
521.6000	0.173636
521.4000	0.174154
521.2000	0.17446
521.0000	0.174719
520.8000	0.175013
520.6000	0.17537
520.4000	0.175806
520.2000	0.17622
520.0000	0.176551
519.8000	0.176867
519.6000	0.177162
519.4000	0.17747
519.2000	0.177858
519.0000	0.178175
518.8000	0.178515
518.6000	0.178893
518.4000	0.179258
518.2000	0.179647
518.0000	0.179917
517.8000	0.18022
517.6000	0.180466
517.4000	0.18076
517.2000	0.181147
517.0000	0.181513
516.8000	0.181861
516.6000	0.182192
516.4000	0.182483
516.2000	0.182863
516.0000	0.18328
515.8000	0.183503
515.6000	0.18386
515.4000	0.184261
515.2000	0.184504
515.0000	0.184815
514.8000	0.185056
514.6000	0.185392
514.4000	0.185907
514.2000	0.186226
514.0000	0.186495
513.8000	0.186911
513.6000	0.187162
513.4000	0.187332
513.2000	0.187668
513.0000	0.187904
512.8000	0.188219
512.6000	0.188564
512.4000	0.18887
512.2000	0.189238
512.0000	0.189539
511.8000	0.189706
511.6000	0.189987
511.4000	0.190479
511.2000	0.19074
511.0000	0.190852
510.8000	0.191213
510.6000	0.191453
510.4000	0.191584
510.2000	0.191945
510.0000	0.192566
509.8000	0.192812
509.6000	0.19313
509.4000	0.193315
509.2000	0.193525
509.0000	0.193973
508.8000	0.194305
508.6000	0.19454
508.4000	0.194797
508.2000	0.195077
508.0000	0.195317
507.8000	0.195492
507.6000	0.195803
507.4000	0.196058
507.2000	0.196403
507.0000	0.196817
506.8000	0.197067
506.6000	0.197364
506.4000	0.197556
506.2000	0.197529
506.0000	0.197794
505.8000	0.198296
505.6000	0.198455
505.4000	0.198554
505.2000	0.198925
505.0000	0.199228
504.8000	0.199497
504.6000	0.19981
504.4000	0.200083
504.2000	0.200394
504.0000	0.200797
503.8000	0.201008
503.6000	0.201119
503.4000	0.201331
503.2000	0.201552
503.0000	0.201763
502.8000	0.202064
502.6000	0.202401
502.4000	0.202557
502.2000	0.202713
502.0000	0.203029
501.8000	0.203372
501.6000	0.203581
501.4000	0.203762
501.2000	0.204134
501.0000	0.204347
500.8000	0.204536
500.6000	0.204732
500.4000	0.205035
500.2000	0.205245
500.0000	0.20535
499.8000	0.205824
499.6000	0.206044
499.4000	0.20609
499.2000	0.206328
499.0000	0.20656
498.8000	0.206832
498.6000	0.207131
498.4000	0.207291
498.2000	0.207432
498.0000	0.207675
497.8000	0.208013
497.6000	0.208279
497.4000	0.208546
497.2000	0.208741
497.0000	0.208955
496.8000	0.209227
496.6000	0.209398
496.4000	0.209473
496.2000	0.20966
496.0000	0.210006
495.8000	0.210339
495.6000	0.210586
495.4000	0.210663
495.2000	0.210864
495.0000	0.211097
494.8000	0.211318
494.6000	0.211777
494.4000	0.211979
494.2000	0.212178
494.0000	0.212497
493.8000	0.212659
493.6000	0.21292
493.4000	0.213049
493.2000	0.213212
493.0000	0.213473
492.8000	0.21364
492.6000	0.21383
492.4000	0.214202
492.2000	0.214462
492.0000	0.214613
491.8000	0.214887
491.6000	0.215062
491.4000	0.215381
491.2000	0.21565
491.0000	0.215764
490.8000	0.216164
490.6000	0.216384
490.4000	0.216275
490.2000	0.216563
490.0000	0.216969
489.8000	0.217024
489.6000	0.217201
489.4000	0.217513
489.2000	0.217779
489.0000	0.218017
488.8000	0.218202
488.6000	0.218419
488.4000	0.218723
488.2000	0.218959
488.0000	0.219082
487.8000	0.219397
487.6000	0.219575
487.4000	0.219679
487.2000	0.220155
487.0000	0.220373
486.8000	0.22039
486.6000	0.220651
486.4000	0.220886
486.2000	0.221142
486.0000	0.221385
485.8000	0.221627
485.6000	0.221913
485.4000	0.22211
485.2000	0.222315
485.0000	0.222442
484.8000	0.222572
484.6000	0.222765
484.4000	0.223017
484.2000	0.223368
484.0000	0.223678
483.8000	0.223894
483.6000	0.224131
483.4000	0.224326
483.2000	0.22464
483.0000	0.224944
482.8000	0.224933
482.6000	0.225207
482.4000	0.225545
482.2000	0.225586
482.0000	0.225842
481.8000	0.226089
481.6000	0.226138
481.4000	0.226354
481.2000	0.226603
481.0000	0.226941
480.8000	0.227233
480.6000	0.227317
480.4000	0.227525
480.2000	0.227898
480.0000	0.228115
479.8000	0.228261
479.6000	0.228421
479.4000	0.228609
479.2000	0.228787
479.0000	0.22901
478.8000	0.229275
478.6000	0.229489
478.4000	0.229775
478.2000	0.230017
478.0000	0.230112
477.8000	0.230212
477.6000	0.230588
477.4000	0.230843
477.2000	0.231011
477.0000	0.231197
476.8000	0.231362
476.6000	0.231711
476.4000	0.231963
476.2000	0.232039
476.0000	0.232145
475.8000	0.232252
475.6000	0.232508
475.4000	0.232734
475.2000	0.232864
475.0000	0.23314
474.8000	0.233532
474.6000	0.233887
474.4000	0.233907
474.2000	0.234076
474.0000	0.23437
473.8000	0.234452
473.6000	0.234575
473.4000	0.23475
473.2000	0.235017
473.0000	0.235385
472.8000	0.235781
472.6000	0.235808
472.4000	0.235747
472.2000	0.236133
472.0000	0.236421
471.8000	0.236401
471.6000	0.236585
471.4000	0.23672
471.2000	0.236909
471.0000	0.237111
470.8000	0.237384
470.6000	0.237668
470.4000	0.237639
470.2000	0.237758
470.0000	0.238045
469.8000	0.238191
469.6000	0.238318
469.4000	0.238705
469.2000	0.238888
469.0000	0.238975
468.8000	0.239189
468.6000	0.239453
468.4000	0.239536
468.2000	0.239546
468.0000	0.239812
467.8000	0.240025
467.6000	0.240029
467.4000	0.240047
467.2000	0.240398
467.0000	0.240589
466.8000	0.240676
466.6000	0.240906
466.4000	0.240815
466.2000	0.240889
466.0000	0.241241
465.8000	0.241378
465.6000	0.241499
465.4000	0.241547
465.2000	0.241639
465.0000	0.241958
464.8000	0.242151
464.6000	0.24222
464.4000	0.242333
464.2000	0.242432
464.0000	0.242585
463.8000	0.242734
463.6000	0.242848
463.4000	0.242972
463.2000	0.243118
463.0000	0.243227
462.8000	0.243257
462.6000	0.243405
462.4000	0.243454
462.2000	0.24353
462.0000	0.243741
461.8000	0.243768
461.6000	0.243969
461.4000	0.244176
461.2000	0.244166
461.0000	0.244329
460.8000	0.244337
460.6000	0.244352
460.4000	0.244469
460.2000	0.244633
460.0000	0.24483
459.8000	0.244714
459.6000	0.244728
459.4000	0.245054
459.2000	0.245174
459.0000	0.245144
458.8000	0.245178
458.6000	0.245247
458.4000	0.245305
458.2000	0.245485
458.0000	0.24543
457.8000	0.245422
457.6000	0.245724
457.4000	0.245606
457.2000	0.245628
457.0000	0.245735
456.8000	0.245652
456.6000	0.245717
456.4000	0.245812
456.2000	0.245918
456.0000	0.246116
455.8000	0.246229
455.6000	0.246028
455.4000	0.245903
455.2000	0.246016
455.0000	0.246025
454.8000	0.246016
454.6000	0.24605
454.4000	0.246051
454.2000	0.246144
454.0000	0.246151
453.8000	0.246053
453.6000	0.246093
453.4000	0.246233
453.2000	0.246228
453.0000	0.246084
452.8000	0.246166
452.6000	0.246064
452.4000	0.245996
452.2000	0.246046
452.0000	0.246049
451.8000	0.246179
451.6000	0.246085
451.4000	0.246202
451.2000	0.246266
451.0000	0.246209
450.8000	0.246149
450.6000	0.245986
450.4000	0.245983
450.2000	0.246033
450.0000	0.246036
449.8000	0.245906
449.6000	0.245823
449.4000	0.245817
449.2000	0.245849
449.0000	0.24588
448.8000	0.245755
448.6000	0.245738
448.4000	0.245587
448.2000	0.245628
448.0000	0.245842
447.8000	0.245734
447.6000	0.245576
447.4000	0.245504
447.2000	0.245559
447.0000	0.24542
446.8000	0.245308
446.6000	0.245313
446.4000	0.245174
446.2000	0.245161
446.0000	0.24518
445.8000	0.245166
445.6000	0.24504
445.4000	0.244899
445.2000	0.244794
445.0000	0.244686
444.8000	0.244727
444.6000	0.244636
444.4000	0.244263
444.2000	0.244043
444.0000	0.244092
443.8000	0.24407
443.6000	0.244065
443.4000	0.244101
443.2000	0.243962
443.0000	0.243861
442.8000	0.243805
442.6000	0.243728
442.4000	0.243662
442.2000	0.243544
442.0000	0.243458
441.8000	0.243366
441.6000	0.243219
441.4000	0.243015
441.2000	0.242807
441.0000	0.242674
440.8000	0.242634
440.6000	0.242733
440.4000	0.242646
440.2000	0.242464
440.0000	0.242365
439.8000	0.242151
439.6000	0.242076
439.4000	0.242012
439.2000	0.24183
439.0000	0.241893
438.8000	0.241703
438.6000	0.241401
438.4000	0.241383
438.2000	0.24115
438.0000	0.240993
437.8000	0.241102
437.6000	0.241001
437.4000	0.240618
437.2000	0.24032
437.0000	0.240271
436.8000	0.240209
436.6000	0.24003
436.4000	0.240071
436.2000	0.240013
436.0000	0.239769
435.8000	0.239634
435.6000	0.239392
435.4000	0.2391
435.2000	0.239039
435.0000	0.239144
434.8000	0.239034
434.6000	0.238894
434.4000	0.238724
434.2000	0.238367
434.0000	0.238136
433.8000	0.238129
433.6000	0.23791
433.4000	0.237705
433.2000	0.237768
433.0000	0.237661
432.8000	0.237472
432.6000	0.237202
432.4000	0.237063
432.2000	0.236947
432.0000	0.236568
431.8000	0.236377
431.6000	0.236432
431.4000	0.236293
431.2000	0.236176
431.0000	0.236146
430.8000	0.23589
430.6000	0.23575
430.4000	0.235563
430.2000	0.23533
430.0000	0.235107
429.8000	0.234842
429.6000	0.234797
429.4000	0.234713
429.2000	0.234572
429.0000	0.234418
428.8000	0.234057
428.6000	0.233824
428.4000	0.233849
428.2000	0.23366
428.0000	0.233363
427.8000	0.233212
427.6000	0.233137
427.4000	0.233021
427.2000	0.233048
427.0000	0.2328
426.8000	0.232306
426.6000	0.232321
426.4000	0.232254
426.2000	0.231797
426.0000	0.231561
425.8000	0.23159
425.6000	0.23135
425.4000	0.231108
425.2000	0.231051
425.0000	0.230909
424.8000	0.2307
424.6000	0.230632
424.4000	0.230299
424.2000	0.229926
424.0000	0.229861
423.8000	0.229672
423.6000	0.229568
423.4000	0.229648
423.2000	0.22947
423.0000	0.229105
422.8000	0.22895
422.6000	0.228975
422.4000	0.228805
422.2000	0.228363
422.0000	0.228059
421.8000	0.227699
421.6000	0.227553
421.4000	0.227489
421.2000	0.227399
421.0000	0.22741
420.8000	0.227176
420.6000	0.226737
420.4000	0.2265
420.2000	0.226319
420.0000	0.226246
419.8000	0.226058
419.6000	0.225598
419.4000	0.225456
419.2000	0.225359
419.0000	0.225239
418.8000	0.225125
418.6000	0.224925
418.4000	0.224706
418.2000	0.224493
418.0000	0.224284
417.8000	0.224006
417.6000	0.22375
417.4000	0.223567
417.2000	0.223419
417.0000	0.223244
416.8000	0.22313
416.6000	0.222941
416.4000	0.222499
416.2000	0.222304
416.0000	0.222177
415.8000	0.222115
415.6000	0.222003
415.4000	0.221648
415.2000	0.221441
415.0000	0.221351
414.8000	0.221373
414.6000	0.220932
414.4000	0.220604
414.2000	0.220466
414.0000	0.220116
413.8000	0.220064
413.6000	0.219948
413.4000	0.219583
413.2000	0.219477
413.0000	0.21927
412.8000	0.218919
412.6000	0.21885
412.4000	0.218706
412.2000	0.218564
412.0000	0.218229
411.8000	0.21796
411.6000	0.21794
411.4000	0.217855
411.2000	0.217441
411.0000	0.217009
410.8000	0.216866
410.6000	0.216793
410.4000	0.21665
410.2000	0.216531
410.0000	0.216117
409.8000	0.215962
409.6000	0.215617
409.4000	0.215433
409.2000	0.215297
409.0000	0.215238
408.8000	0.215038
408.6000	0.214953
408.4000	0.214954
408.2000	0.214609
408.0000	0.214405
407.8000	0.214227
407.6000	0.213921
407.4000	0.21366
407.2000	0.213348
407.0000	0.213103
406.8000	0.21298
406.6000	0.212825
406.4000	0.212488
406.2000	0.212281
406.0000	0.212203
405.8000	0.211973
405.6000	0.211543
405.4000	0.211323
405.2000	0.211329
405.0000	0.211024
404.8000	0.210823
404.6000	0.210785
404.4000	0.2106
404.2000	0.210509
404.0000	0.210181
403.8000	0.209804
403.6000	0.209624
403.4000	0.209429
403.2000	0.209074
403.0000	0.208769
402.8000	0.208681
402.6000	0.208696
402.4000	0.208372
402.2000	0.207786
402.0000	0.207883
401.8000	0.207898
401.6000	0.207615
401.4000	0.207319
401.2000	0.20686
401.0000	0.206646
400.8000	0.206348
400.6000	0.20625
400.4000	0.206238
400.2000	0.205816
400.0000	0.205766
399.8000	0.205603
399.6000	0.20517
399.4000	0.205034
399.2000	0.204901
399.0000	0.204716
398.8000	0.204535
398.6000	0.204484
398.4000	0.204089
398.2000	0.203689
398.0000	0.203372
397.8000	0.20315
397.6000	0.203221
397.4000	0.203012
397.2000	0.20289
397.0000	0.202576
396.8000	0.202067
396.6000	0.201891
396.4000	0.201817
396.2000	0.201758
396.0000	0.201551
395.8000	0.201437
395.6000	0.201143
395.4000	0.20088
395.2000	0.20089
395.0000	0.200813
394.8000	0.200726
394.6000	0.200552
394.4000	0.200197
394.2000	0.199841
394.0000	0.199451
393.8000	0.199338
393.6000	0.19914
393.4000	0.198872
393.2000	0.198409
393.0000	0.198018
392.8000	0.197935
392.6000	0.197682
392.4000	0.197553
392.2000	0.197368
392.0000	0.197433
391.8000	0.197418
391.6000	0.1971
391.4000	0.196573
391.2000	0.196214
391.0000	0.196247
390.8000	0.196091
390.6000	0.195708
390.4000	0.195487
390.2000	0.195515
390.0000	0.19532
389.8000	0.195103
389.6000	0.194892
389.4000	0.19457
389.2000	0.194369
389.0000	0.19406
388.8000	0.194011
388.6000	0.193897
388.4000	0.193578
388.2000	0.193353
388.0000	0.19302
387.8000	0.192651
387.6000	0.192807
387.4000	0.192638
387.2000	0.192342
387.0000	0.192353
386.8000	0.19197
386.6000	0.191793
386.4000	0.191829
386.2000	0.191693
386.0000	0.191108
385.8000	0.190814
385.6000	0.190752
385.4000	0.190617
385.2000	0.190485
385.0000	0.190329
384.8000	0.190251
384.6000	0.190059
384.4000	0.190052
384.2000	0.18995
384.0000	0.189522
383.8000	0.189196
383.6000	0.189046
383.4000	0.189089
383.2000	0.188747
383.0000	0.18843
382.8000	0.188327
382.6000	0.188255
382.4000	0.188422
382.2000	0.188021
382.0000	0.18794
381.8000	0.187853
381.6000	0.187399
381.4000	0.18729
381.2000	0.187018
381.0000	0.187134
380.8000	0.18704
380.6000	0.186712
380.4000	0.186826
380.2000	0.186771
380.0000	0.186627
379.8000	0.186295
379.6000	0.186051
379.4000	0.186095
379.2000	0.18604
379.0000	0.185772
378.8000	0.185583
378.6000	0.185101
378.4000	0.185051
378.2000	0.185164
378.0000	0.18473
377.8000	0.184731
377.6000	0.1848
377.4000	0.18458
377.2000	0.18455
377.0000	0.184446
376.8000	0.184297
376.6000	0.184046
376.4000	0.184313
376.2000	0.184145
376.0000	0.183538
375.8000	0.183651
375.6000	0.183553
375.4000	0.183511
375.2000	0.183573
375.0000	0.183503
374.8000	0.18324
374.6000	0.183035
374.4000	0.183289
374.2000	0.183268
374.0000	0.182953
373.8000	0.182998
373.6000	0.182842
373.4000	0.182905
373.2000	0.183013
373.0000	0.182776
372.8000	0.182736
372.6000	0.182819
372.4000	0.182687
372.2000	0.182528
372.0000	0.182518
371.8000	0.182492
371.6000	0.182368
371.4000	0.182555
371.2000	0.182586
371.0000	0.182348
370.8000	0.182331
370.6000	0.182517
370.4000	0.182514
370.2000	0.182344
370.0000	0.182395
369.8000	0.182593
369.6000	0.182555
369.4000	0.182777
369.2000	0.182697
369.0000	0.182931
368.8000	0.182778
368.6000	0.182529
368.4000	0.182518
368.2000	0.182201
368.0000	0.182296
367.8000	0.182684
367.6000	0.182589
367.4000	0.182625
367.2000	0.18316
367.0000	0.183257
366.8000	0.18273
366.6000	0.182785
366.4000	0.183425
366.2000	0.183252
366.0000	0.183249
365.8000	0.183792
365.6000	0.183688
365.4000	0.183493
365.2000	0.183742
365.0000	0.184039
364.8000	0.184449
364.6000	0.184655
364.4000	0.18491
364.2000	0.185074
364.0000	0.184717
363.8000	0.18481
363.6000	0.184997
363.4000	0.185361
363.2000	0.185664
363.0000	0.185764
362.8000	0.186175
362.6000	0.186314
362.4000	0.18669
362.2000	0.186721
362.0000	0.186689
361.8000	0.187024
361.6000	0.187268
361.4000	0.187491
361.2000	0.188058
361.0000	0.188615
360.8000	0.188466
360.6000	0.188647
360.4000	0.189136
360.2000	0.189298
360.0000	0.189827
359.8000	0.190246
359.6000	0.19017
359.4000	0.190736
359.2000	0.19121
359.0000	0.191159
358.8000	0.191662
358.6000	0.192445
358.4000	0.19293
358.2000	0.193074
358.0000	0.193353
357.8000	0.1939
357.6000	0.194372
357.4000	0.194543
357.2000	0.194564
357.0000	0.195415
356.8000	0.196299
356.6000	0.196571
356.4000	0.197084
356.2000	0.197322
356.0000	0.197668
355.8000	0.198205
355.6000	0.198972
355.4000	0.199509
355.2000	0.199964
355.0000	0.200589
354.8000	0.200807
354.6000	0.201248
354.4000	0.201706
354.2000	0.202678
354.0000	0.203571
353.8000	0.203742
353.6000	0.204435
353.4000	0.205387
353.2000	0.206018
353.0000	0.206309
352.8000	0.20693
352.6000	0.208091
352.4000	0.208933
352.2000	0.209822
352.0000	0.210429
351.8000	0.210991
351.6000	0.211677
351.4000	0.212595
351.2000	0.213329
351.0000	0.21385
350.8000	0.214688
350.6000	0.215908
350.4000	0.217076
350.2000	0.217377
350.0000	0.217805
349.8000	0.218843
349.6000	0.220034
349.4000	0.220815
349.2000	0.221113
349.0000	0.222
348.8000	0.223874
348.6000	0.225041
348.4000	0.225453
348.2000	0.226591
348.0000	0.227451
347.8000	0.228227
347.6000	0.22921
347.4000	0.230244
347.2000	0.231737
347.0000	0.232701
346.8000	0.233966
346.6000	0.235045
346.4000	0.235935
346.2000	0.237259
346.0000	0.23824
345.8000	0.23931
345.6000	0.240009
345.4000	0.241194
345.2000	0.24299
345.0000	0.244385
344.8000	0.245475
344.6000	0.246581
344.4000	0.2481
344.2000	0.249245
344.0000	0.250182
343.8000	0.251455
343.6000	0.252897
343.4000	0.254149
343.2000	0.255353
343.0000	0.256779
342.8000	0.257941
342.6000	0.259038
342.4000	0.260054
342.2000	0.261915
342.0000	0.263871
341.8000	0.265215
341.6000	0.266528
341.4000	0.267444
341.2000	0.268894
341.0000	0.270343
340.8000	0.271585
340.6000	0.273326
340.4000	0.274962
340.2000	0.276771
340.0000	0.278783
339.8000	0.280068
339.6000	0.281746
339.4000	0.28317
339.2000	0.284567
339.0000	0.286405
338.8000	0.287821
338.6000	0.289165
338.4000	0.290927
338.2000	0.293246
338.0000	0.294903
337.8000	0.296218
337.6000	0.29785
337.4000	0.299487
337.2000	0.301049
337.0000	0.302633
336.8000	0.304519
336.6000	0.306194
336.4000	0.308226
336.2000	0.310643
336.0000	0.311942
335.8000	0.313003
335.6000	0.314919
335.4000	0.316896
335.2000	0.318639
335.0000	0.320824
334.8000	0.32289
334.6000	0.324951
334.4000	0.32692
334.2000	0.328287
334.0000	0.329676
333.8000	0.332005
333.6000	0.334314
333.4000	0.336253
333.2000	0.33835
333.0000	0.340278
332.8000	0.342488
332.6000	0.344617
332.4000	0.345937
332.2000	0.348045
332.0000	0.350589
331.8000	0.352415
331.6000	0.354495
331.4000	0.356241
331.2000	0.357853
331.0000	0.360297
330.8000	0.36299
330.6000	0.364937
330.4000	0.366711
330.2000	0.368771
330.0000	0.37081
329.8000	0.372964
329.6000	0.375077
329.4000	0.377409
329.2000	0.379554
329.0000	0.381222
328.8000	0.383696
328.6000	0.38624
328.4000	0.388097
328.2000	0.390365
328.0000	0.39265
327.8000	0.394659
327.6000	0.396883
327.4000	0.398935
327.2000	0.401189
327.0000	0.403814
326.8000	0.406188
326.6000	0.408949
326.4000	0.411903
326.2000	0.413709
326.0000	0.41585
325.8000	0.418957
325.6000	0.421249
325.4000	0.423529
325.2000	0.426248
325.0000	0.42862
324.8000	0.430463
324.6000	0.433038
324.4000	0.435832
324.2000	0.437953
324.0000	0.441192
323.8000	0.443952
323.6000	0.446133
323.4000	0.448609
323.2000	0.45133
323.0000	0.454035
322.8000	0.456304
322.6000	0.459175
322.4000	0.462312
322.2000	0.465194
322.0000	0.468116
321.8000	0.470869
321.6000	0.47352
321.4000	0.476704
321.2000	0.479532
321.0000	0.482387
320.8000	0.484972
320.6000	0.487615
320.4000	0.49093
320.2000	0.494346
320.0000	0.497394
319.8000	0.500323
319.6000	0.503739
319.4000	0.50701
319.2000	0.50981
319.0000	0.513128
318.8000	0.516795
318.6000	0.520516
318.4000	0.52345
318.2000	0.525898
318.0000	0.52963
317.8000	0.533776
317.6000	0.537343
317.4000	0.54094
317.2000	0.544998
317.0000	0.548659
316.8000	0.552085
316.6000	0.555463
316.4000	0.559534
316.2000	0.563721
316.0000	0.567502
315.8000	0.57144
315.6000	0.57635
315.4000	0.580731
315.2000	0.584258
315.0000	0.588186
314.8000	0.592569
314.6000	0.597492
314.4000	0.60151
314.2000	0.605884
314.0000	0.610542
313.8000	0.614954
313.6000	0.619939
313.4000	0.624694
313.2000	0.628969
313.0000	0.632889
312.8000	0.638134
312.6000	0.644037
312.4000	0.648871
312.2000	0.653839
312.0000	0.659196
311.8000	0.664272
311.6000	0.669536
311.4000	0.674413
311.2000	0.679743
311.0000	0.685751
310.8000	0.691248
310.6000	0.697166
310.4000	0.703149
310.2000	0.708733
310.0000	0.714096
309.8000	0.719277
309.6000	0.725232
309.4000	0.731873
309.2000	0.738343
309.0000	0.744977
308.8000	0.75114
308.6000	0.756417
308.4000	0.763007
308.2000	0.769928
308.0000	0.775727
307.8000	0.782311
307.6000	0.788782
307.4000	0.795624
307.2000	0.802174
307.0000	0.808724
306.8000	0.816124
306.6000	0.822283
306.4000	0.829156
306.2000	0.836679
306.0000	0.843834
305.8000	0.85125
305.6000	0.857798
305.4000	0.86513
305.2000	0.873344
305.0000	0.880388
304.8000	0.887068
304.6000	0.894583
304.4000	0.902515
304.2000	0.910174
304.0000	0.918078
303.8000	0.925486
303.6000	0.932457
303.4000	0.940494
303.2000	0.949003
303.0000	0.956677
302.8000	0.96371
302.6000	0.972065
302.4000	0.980468
302.2000	0.987563
302.0000	0.996036
301.8000	1.00387
301.6000	1.01184
301.4000	1.02068
301.2000	1.02794
301.0000	1.03661
300.8000	1.04593
300.6000	1.05345
300.4000	1.06074
300.2000	1.06879
300.0000	1.07739
299.8000	1.08604
299.6000	1.09397
299.4000	1.10174
299.2000	1.11049
299.0000	1.11857
298.8000	1.12611
298.6000	1.13454
298.4000	1.14243
298.2000	1.15052
298.0000	1.15844
297.8000	1.1661
297.6000	1.17442
297.4000	1.18298
297.2000	1.19162
297.0000	1.19916
296.8000	1.20668
296.6000	1.21518
296.4000	1.22355
296.2000	1.23171
296.0000	1.23929
295.8000	1.24646
295.6000	1.25485
295.4000	1.26338
295.2000	1.27115
295.0000	1.27897
294.8000	1.28676
294.6000	1.29388
294.4000	1.30235
294.2000	1.31138
294.0000	1.31912
293.8000	1.32675
293.6000	1.33507
293.4000	1.34296
293.2000	1.34983
293.0000	1.35796
292.8000	1.36807
292.6000	1.37662
292.4000	1.38251
292.2000	1.39015
292.0000	1.3992
291.8000	1.40757
291.6000	1.41564
291.4000	1.42333
291.2000	1.43103
291.0000	1.43963
290.8000	1.44753
290.6000	1.45605
290.4000	1.46439
290.2000	1.47151
290.0000	1.47978
289.8000	1.48835
289.6000	1.4967
289.4000	1.50447
289.2000	1.51337
289.0000	1.52267
288.8000	1.53119
288.6000	1.5406
288.4000	1.54787
288.2000	1.55626
288.0000	1.56634
287.8000	1.57459
287.6000	1.58151
287.4000	1.59016
287.2000	1.5996
287.0000	1.60723
286.8000	1.61696
286.6000	1.6261
286.4000	1.6351
286.2000	1.64481
286.0000	1.65298
285.8000	1.66206
285.6000	1.67139
285.4000	1.68051
285.2000	1.69082
285.0000	1.7013
284.8000	1.70962
284.6000	1.7194
284.4000	1.73009
284.2000	1.74016
284.0000	1.75138
283.8000	1.75984
283.6000	1.77017
283.4000	1.78152
283.2000	1.79103
283.0000	1.80037
282.8000	1.81021
282.6000	1.82377
282.4000	1.83763
282.2000	1.84687
282.0000	1.85556
281.8000	1.86664
281.6000	1.87837
281.4000	1.88913
281.2000	1.9014
281.0000	1.9145
280.8000	1.92669
280.6000	1.93796
280.4000	1.94898
280.2000	1.96008
280.0000	1.97368
279.8000	1.98748
279.6000	1.99954
279.4000	2.01266
279.2000	2.02162
279.0000	2.03294
278.8000	2.04835
278.6000	2.06076
278.4000	2.073
278.2000	2.08613
278.0000	2.10164
277.8000	2.11478
277.6000	2.12466
277.4000	2.14198
277.2000	2.15656
277.0000	2.16688
276.8000	2.17892
276.6000	2.18982
276.4000	2.20175
276.2000	2.21506
276.0000	2.2293
275.8000	2.24527
275.6000	2.25568
275.4000	2.25999
275.2000	2.26909
275.0000	2.28052
274.8000	2.29069
274.6000	2.29818
274.4000	2.30721
274.2000	2.32161
274.0000	2.32772
273.8000	2.32835
273.6000	2.33761
273.4000	2.33824
273.2000	2.33872
273.0000	2.34215
272.8000	2.33447
272.6000	2.3292
272.4000	2.32955
272.2000	2.32243
272.0000	2.31005
271.8000	2.30241
271.6000	2.2922
271.4000	2.26518
271.2000	2.24575
271.0000	2.24184
270.8000	2.2261
270.6000	2.20258
270.4000	2.17999
270.2000	2.15121
270.0000	2.12923
269.8000	2.09959
269.6000	2.07033
269.4000	2.04229
269.2000	1.99975
269.0000	1.95968
268.8000	1.91867
268.6000	1.87124
268.4000	1.83813
268.2000	1.8052
268.0000	1.76098
267.8000	1.72615
267.6000	1.68173
267.4000	1.62474
267.2000	1.57604
267.0000	1.54578
266.8000	1.50636
266.6000	1.45319
266.4000	1.41303
266.2000	1.36449
266.0000	1.32353
265.8000	1.281
265.6000	1.23108
265.4000	1.19501
265.2000	1.14826
265.0000	1.10565
264.8000	1.07185
264.6000	1.04193
264.4000	1.01782
264.2000	0.98799
264.0000	0.958664
263.8000	0.942111
263.6000	0.915858
263.4000	0.876858
263.2000	0.866991
263.0000	0.856123
262.8000	0.825053
262.6000	0.811063
262.4000	0.801806
262.2000	0.792554
262.0000	0.785394
261.8000	0.7608
261.6000	0.747084
261.4000	0.746262
261.2000	0.735954
261.0000	0.729138
260.8000	0.717322
260.6000	0.7215
260.4000	0.712265
260.2000	0.693364
260.0000	0.684269
259.8000	0.669133
259.6000	0.666844
259.4000	0.664265
259.2000	0.657889
259.0000	0.652073
258.8000	0.632992
258.6000	0.62933
258.4000	0.632909
258.2000	0.625806
258.0000	0.621354
257.8000	0.622648
257.6000	0.621386
257.4000	0.609547
257.2000	0.605912
257.0000	0.60523
256.8000	0.595155
256.6000	0.586864
256.4000	0.589714
256.2000	0.600398
256.0000	0.597719
255.8000	0.581686
255.6000	0.577194
255.4000	0.561866
255.2000	0.550491
255.0000	0.554544
254.8000	0.551107
254.6000	0.542753
254.4000	0.536722
254.2000	0.543468
254.0000	0.545489
253.8000	0.53053
253.6000	0.5225
253.4000	0.517745
253.2000	0.512588
253.0000	0.519267
252.8000	0.528073
252.6000	0.5168
252.4000	0.511287
252.2000	0.521357
252.0000	0.51871
251.8000	0.511252
251.6000	0.503017
251.4000	0.498285
251.2000	0.49052
251.0000	0.480114
250.8000	0.487489
250.6000	0.492062
250.4000	0.4891
250.2000	0.484807
250.0000	0.480228
249.8000	0.472598
249.6000	0.450625
249.4000	0.461159
249.2000	0.469577
249.0000	0.463297
248.8000	0.471044
248.6000	0.476663
248.4000	0.469699
248.2000	0.45533
248.0000	0.453234
247.8000	0.451212
247.6000	0.45477
247.4000	0.455493
247.2000	0.454602
247.0000	0.446622
246.8000	0.449044
246.6000	0.443318
246.4000	0.440715
246.2000	0.443326
246.0000	0.427184
245.8000	0.42346
245.6000	0.43416
245.4000	0.431391
245.2000	0.427971
245.0000	0.435789
244.8000	0.433082
244.6000	0.428806
244.4000	0.430155
244.2000	0.438348
244.0000	0.427718
243.8000	0.418112
243.6000	0.42578
243.4000	0.423923
243.2000	0.415283
243.0000	0.41638
242.8000	0.425502
242.6000	0.42749
242.4000	0.431594
242.2000	0.415504
242.0000	0.405631
241.8000	0.42039
241.6000	0.411102
241.4000	0.40498
241.2000	0.409128
241.0000	0.410721
240.8000	0.399914
240.6000	0.385628
240.4000	0.38623
240.2000	0.395581
240.0000	0.39992
239.8000	0.39443
239.6000	0.390894
239.4000	0.39264
239.2000	0.397245
239.0000	0.390081
238.8000	0.380519
238.6000	0.380987
238.4000	0.382821
238.2000	0.394574
238.0000	0.39948
237.8000	0.390057
237.6000	0.382103
237.4000	0.377607
237.2000	0.378549
237.0000	0.381517
236.8000	0.382755
236.6000	0.378816
236.4000	0.372919
236.2000	0.359028
236.0000	0.372514
235.8000	0.383647
235.6000	0.37619
235.4000	0.373296
235.2000	0.362016
235.0000	0.357761
234.8000	0.35287
234.6000	0.357429
234.4000	0.373594
234.2000	0.377981
234.0000	0.370801
233.8000	0.360862
233.6000	0.361039
233.4000	0.377779
233.2000	0.381246
233.0000	0.378969
232.8000	0.380062
232.6000	0.375453
232.4000	0.369821
232.2000	0.359454
232.0000	0.355909
231.8000	0.363542
231.6000	0.372885
231.4000	0.357207
231.2000	0.352497
231.0000	0.369612
230.8000	0.369381
230.6000	0.357698
230.4000	0.345292
230.2000	0.348731
230.0000	0.35486
229.8000	0.351783
229.6000	0.354589
229.4000	0.354462
229.2000	0.361038
229.0000	0.381551
228.8000	0.370032
228.6000	0.356734
228.4000	0.36445
228.2000	0.366204
228.0000	0.364649
227.8000	0.358276
227.6000	0.347575
227.4000	0.3415
227.2000	0.354382
227.0000	0.352604
226.8000	0.346416
226.6000	0.347221
226.4000	0.341016
226.2000	0.329419
226.0000	0.345988
225.8000	0.358912
225.6000	0.344657
225.4000	0.354315
225.2000	0.354011
225.0000	0.34268
224.8000	0.351995
224.6000	0.349262
224.4000	0.344877
224.2000	0.356243
224.0000	0.348195
223.8000	0.340079
223.6000	0.344858
223.4000	0.335423
223.2000	0.323631
223.0000	0.337154
222.8000	0.338825
222.6000	0.339084
222.4000	0.358026
222.2000	0.367538
222.0000	0.348108
221.8000	0.327961
221.6000	0.332234
221.4000	0.344683
221.2000	0.338367
221.0000	0.346355
220.8000	0.354119
220.6000	0.326464
220.4000	0.318281
220.2000	0.334628
220.0000	0.336775
219.8000	0.325846
219.6000	0.321114
219.4000	0.333962
219.2000	0.347506
219.0000	0.343551
218.8000	0.338845
218.6000	0.335266
218.4000	0.332424
218.2000	0.330767
218.0000	0.345976
217.8000	0.352086
217.6000	0.343212
217.4000	0.336747
217.2000	0.332374
217.0000	0.343816
216.8000	0.339355
216.6000	0.338147
216.4000	0.333826
216.2000	0.317903
216.0000	0.323217
215.8000	0.332871
215.6000	0.347474
215.4000	0.351054
215.2000	0.326
215.0000	0.315323
214.8000	0.344056
214.6000	0.352553
214.4000	0.337858
214.2000	0.332533
214.0000	0.321551
213.8000	0.310244
213.6000	0.316848
213.4000	0.327945
213.2000	0.320817
213.0000	0.315077
212.8000	0.305511
212.6000	0.308317
212.4000	0.311577
212.2000	0.320236
212.0000	0.329591
211.8000	0.301844
211.6000	0.302287
211.4000	0.318288
211.2000	0.301743
211.0000	0.29861
210.8000	0.317757
210.6000	0.320982
210.4000	0.306124
210.2000	0.295767
210.0000	0.306206
209.8000	0.312934
209.6000	0.31456
209.4000	0.322857
209.2000	0.310139
209.0000	0.298227
208.8000	0.296834
208.6000	0.301599
208.4000	0.311917
208.2000	0.309477
208.0000	0.291596
207.8000	0.301276
207.6000	0.303369
207.4000	0.290722
207.2000	0.302416
207.0000	0.291756
206.8000	0.300809
206.6000	0.307887
206.4000	0.289673
206.2000	0.2897
206.0000	0.297936
205.8000	0.291931
205.6000	0.293833
205.4000	0.286152
205.2000	0.275273
205.0000	0.295046
204.8000	0.311065
204.6000	0.30956
204.4000	0.286483
204.2000	0.288343
204.0000	0.329143
203.8000	0.343485
203.6000	0.314318
203.4000	0.275852
203.2000	0.291134
203.0000	0.310706
202.8000	0.288692
202.6000	0.28742
202.4000	0.297838
202.2000	0.303852
202.0000	0.299955
201.8000	0.303129
201.6000	0.311163
201.4000	0.312951
201.2000	0.301538
201.0000	0.298043
200.8000	0.294121
200.6000	0.303755
200.4000	0.323454
200.2000	0.315231
200.0000	0.296208

##### Extended Information
[Comments]
Sample name
Comment
Username
Division
Organization	Uni Stuttgart

[Detailed Information]
Creation date	19/11/2025 13:51

Data array type	Linear data array
Horizontal axis	Wavelength [nm]
Vertical axis	Abs
Start	900 nm
End	200 nm
Data interval	0.2 nm
Data points	3501    

[Measurement Information]
Instrument name	V-770
Model name	V-770
Serial No.	G136261801

Accessory	EHCS-760
Accessory S/N	C031061397
  Temperature	0.00 C
  Control sensor	Holder
  Monitor sensor	Holder
  Start mode	Start immediately
  Cell	
  N2 purge	Not use
  Ref. beam	

Measurement date	19/11/2025 13:50

Photometric mode	Abs
Measurement range	900 - 200 nm
Data interval	0.2 nm
UV/Vis bandwidth	1.0 nm
NIR bandwidth	4.0 nm
UV/Vis response	0.06 sec
NIR response	0.06 sec
Scan mode	Continuous
Scan speed	400 nm/min
Change source at	340 nm
Change grating at	900 nm
Light source	D2/WI
Filter exchange	Step
Correction	Baseline
No. of cycles	1

