Bruker BioSpin GmbH: the minispec
DataType=1
DataLimits=-81.9672,81.9672,8192
DataUnit=Freq/kHz,
c:\users\student\documents\nmr-apps\fluor_ft_pcii.app
07.01.2025 16:56:36

43.8992
9.99388
83.7138
63.2263
54.6926
44.1724
88.2431
101.873
181.668
75.1778
97.6495
104.397
36.4161
129.934
108.028
25.4391
103.851
53.5275
73.8981
122.004
31.2893
45.3058
54.5132
60.369
76.4408
133.583
36.541
25.3509
74.7629
91.4788
158.34
179.907
128.335
87.6649
156.628
112.598
59.7717
57.3836
147.061
51.8386
132.32
148.06
53.2093
109.161
109.509
99.4886
95.5634
21.6667
31.5228
66.5814
96.9232
97.4863
238.613
100.812
55.0042
43.9834
42.7431
85.6868
138.807
66.8999
87.4193
66.4874
116.019
45.8647
89.6854
113.556
58.9053
13.8183
69.2635
87.5805
112.15
142.007
176.534
107.842
137.205
29.8914
63.9673
35.2001
70.363
118.997
72.4339
62.2861
64.6154
91.6899
76.7634
54.4567
62.8485
88.7538
57.2413
116.202
121.925
75.0017
119.243
93.8802
123.074
158.069
91.237
58.0121
81.4779
172.613
125.4
4.98539
78.909
86.7658
54.5475
120.078
82.8766
129.288
131.798
112.628
77.2821
63.3247
19.1212
53.0836
136.174
124.723
71.8843
84.8957
41.5315
152.395
53.1743
169.642
46.2845
201.148
90.019
102.673
22.7428
37.9875
101.776
107.896
83.2402
41.1991
52.3889
94.5473
39.3693
71.1813
144.264
154.449
9.4627
89.5114
106.108
29.9445
120.844
47.1749
144.646
58.3197
32.0233
121.561
62.2985
108.2
148.768
60.7323
70.6468
152.864
95.1352
58.6277
42.0217
142.772
39.4576
87.4736
92.1417
119.67
72.7257
102.332
99.8497
15.4907
125.823
46.6509
62.158
77.3762
63.0999
38.7981
105.965
99.1464
82.1907
50.6491
95.6579
82.0457
10.8019
73.1585
129.699
53.1726
171.92
9.14712
247.726
230.432
71.6854
54.4142
108.633
92.2149
6.80982
125.226
49.0291
80.3896
67.6682
68.373
98.2295
96.6351
35.532
25.5704
156.064
68.079
70.5185
114.494
95.6818
86.3088
153.513
59.9286
80.7712
60.0895
27.4517
64.7131
51.5301
52.4641
108.054
119.147
68.086
46.7445
105.53
103.168
82.0793
147.007
52.0286
67.8923
55.5641
120.853
72.4128
62.2069
107.268
67.1559
103.744
226.525
80.5346
109.188
60.3119
71.7367
110.934
66.9792
79.9513
69.1927
74.1443
76.2591
125.569
196.305
81.7122
27.9928
25.9772
53.7529
58.679
111.808
209.574
110.61
209.5
70.4295
215.558
43.0089
90.0969
53.9753
74.3919
52.2254
66.7082
143.244
17.1054
74.1649
100.734
174.433
107.6
101.265
86.4036
86.2
69.4944
100.193
33.4576
98.4563
5.4705
73.9259
44.6481
13.7086
32.2279
66.2705
82.526
67.0485
96.7104
113.683
21.4122
72.002
54.9035
49.9716
133.287
103.148
68.196
181.448
53.5635
89.5183
27.7854
36.5554
89.9866
98.7981
126.713
78.8691
88.4272
130.903
97.4982
21.7928
46.6226
119.154
74.845
67.2829
115.99
97.3967
43.3479
179.54
98.2522
30.4956
85.8115
76.1986
24.0297
53.0048
85.7887
118.954
61.5789
13.4429
91.6818
42.3591
79.5986
75.7987
53.8791
55.528
59.4027
120.086
51.6963
48.3519
65.9066
75.7513
44.3208
73.959
68.6368
113.983
93.4464
29.1901
55.2697
110.954
71.4329
32.1905
169.081
80.7039
68.0866
66.557
30.9147
39.1227
140.744
25.415
47.6816
71.3823
33.5476
71.8798
118.297
32.0246
102.851
36.042
113.002
87.4916
92.9799
65.266
102.222
89.6088
114.46
156.373
170.846
90.9843
40.0978
120.544
108.398
159.221
79.6071
108.413
36.898
87.0347
167.57
80.9177
79.6651
89.313
84.4273
77.6228
62.086
71.3268
29.3317
134.711
111.794
22.8458
73.2108
106.509
157.037
102.699
33.1511
88.2409
19.458
109.659
64.7537
75.2671
64.4916
37.2096
71.4177
169.581
58.9394
68.4368
74.2148
130.076
118.213
124.892
20.6255
130.533
97.4817
72.144
43.9831
69.8994
27.329
96.4494
102.812
144.656
18.8709
147.665
29.4975
23.2965
42.9702
17.4233
92.5587
130.465
53.3349
68.4217
89.837
70.8319
58.4788
77.6677
42.5922
73.3307
122.969
24.429
92.7158
151.429
87.3887
116.065
62.1729
96.8886
73.2317
24.6751
105.932
29.0399
113.012
242.204
64.2703
49.2359
116.373
42.8482
202.713
33.2169
38.742
31.906
133.8
71.9613
96.5184
76.3342
28.3381
88.2127
90.1653
128.729
107.115
85.0277
89.383
34.6104
118.029
83.3897
30.7798
101.495
77.6353
93.0435
91.9528
50.918
128.064
60.7472
102.411
56.8284
99.7942
85.4324
53.8989
183.286
66.1002
77.6684
80.3346
86.9395
46.1155
107.971
126.157
68.8427
125.412
143.273
108.839
25.6811
76.6823
9.80054
100.725
90.8957
198.504
120.719
29.2335
95.1491
103.293
82.5422
71.8148
43.5864
68.1025
154.118
42.4109
41.6312
57.0908
97.7781
25.4873
78.9834
38.4871
120.114
60.8721
147.629
37.0425
79.2047
124.454
94.9826
131.896
127.928
12.8917
139.33
47.6305
55.0441
90.623
98.8854
77.9932
8.82357
60.3996
90.933
135.372
146.633
68.74
38.2767
137.017
123.07
68.7275
76.18
121.825
181.949
62.0432
87.619
122.756
100.91
119.04
77.8088
131.572
51.4669
111.443
90.2161
88.1516
98.7381
107.755
110.624
183.739
49.3252
102.905
87.301
31.2154
70.1877
95.879
73.5314
30.7371
94.6185
89.7301
149.075
79.3884
61.9555
96.0861
23.7867
91.9284
120.248
74.724
96.8274
92.7918
77.0804
94.5287
72.306
84.369
113.385
76.5251
60.5937
89.8229
10.1516
36.1519
71.8764
37.9718
87.9712
97.2367
105.648
46.5758
75.3151
58.7936
161.05
61.8634
199.724
40.0684
43.1815
57.443
33.1177
8.59298
145.414
35.9468
18.7445
102.799
32.9525
87.4921
82.9142
167.439
91.3043
63.4718
52.9024
91.3312
47.8661
33.5705
110.282
139.053
56.0526
126.434
81.2015
65.2062
170.85
69.9819
124.166
101.342
156.205
32.0144
4.39533
59.0286
50.4169
107.894
36.7394
54.869
65.7371
45.6746
105.431
108.282
96.1373
24.347
135.151
58.2969
197.67
152.248
64.3427
85.6959
149.94
12.9693
22.725
70.3016
96.4707
53.5005
94.272
72.7024
123.624
137.683
22.7588
128.36
38.0232
83.1824
72.3284
47.9083
114.63
94.913
47.8265
24.7605
70.894
95.5343
101.262
28.8741
78.7565
25.5922
44.2066
125.438
91.8673
52.7362
77.6018
28.3838
117.054
127.527
128.756
76.4622
51.7065
173.265
96.4528
118.579
63.4855
55.1859
135.309
61.4544
131.869
44.0839
101.938
45.105
134.14
152.08
107.725
149.019
63.1544
103.098
24.8154
105.242
115.916
165.395
58.5567
75.2592
144.679
54.8949
116.259
91.9354
51.3939
101.631
64.7656
29.7835
84.7838
46.6827
70.0968
120.508
160.197
69.0381
177.821
110.213
93.4595
41.0841
77.7977
115.75
94.0558
69.8671
79.1471
39.6631
120.73
26.1773
18.1753
55.9775
12.0895
21.7349
79.0921
69.9602
40.5451
84.7318
95.6733
41.6961
18.5603
106.26
111.259
18.3389
72.1917
66.1074
63.096
176.43
66.4932
122.917
49.4751
157.478
101.063
82.5634
118.291
178.189
80.9659
39.8617
151.618
13.7793
27.6544
132.883
172.919
163.19
33.4422
99.7049
113.29
70.6574
91.6348
135.581
113.015
141.51
146.639
25.1796
107.523
18.2877
208.504
112.809
99.2625
62.5189
33.2928
116.188
46.2602
59.0334
53.0941
64.6438
80.5346
65.5354
45.1913
43.443
59.6137
94.932
86.3956
114.62
85.1189
102.436
109.38
139.543
72.0567
57.0986
5.0906
89.6445
119.567
62.9912
40.265
83.3881
61.0408
74.8741
185.432
133.955
45.1959
172.993
149
29.7379
111.037
117.766
77.5091
37.0405
98.2334
32.5478
143.673
94.7484
113.684
114.985
43.9064
39.1833
127.881
97.3891
64.7871
48.3049
50.6347
50.9363
77.7873
113.564
120.438
26.1737
35.3987
123.308
104.984
19.2736
159.849
190.852
53.0185
100.943
73.6316
107.239
152.005
106.358
176.195
61.6668
23.5737
92.781
76.2239
81.7321
20.592
106.177
114.013
113.395
52.1771
7.93741
168.372
36.4421
89.3174
93.4197
156.395
41.8553
70.528
100.922
133.503
35.2519
41.0201
185.85
93.5758
35.154
154.072
112.919
70.2737
167.042
76.3664
50.8205
76.3585
48.4132
82.556
107.175
121.489
58.4818
125.264
79.0313
132.533
68.3588
69.4184
139.746
87.8936
68.2836
22.1817
42.492
115.311
53.499
19.4248
149.54
112.942
34.0735
69.2043
97.2062
113.892
145.419
86.4346
46.8306
51.3467
80.5103
100.501
29.1937
64.5206
46.6159
59.3396
79.2835
55.6156
54.2111
159.486
92.5419
35.5163
119.921
91.9205
57.0413
115.395
76.6237
43.769
45.3064
114.102
87.2212
101.684
69.2819
130.571
186.875
93.5551
126.01
106.137
37.1331
63.6728
138.107
59.6896
99.8445
103.373
117.472
80.7564
86.8984
181.895
87.8462
31.1528
158.346
78.1523
58.0673
37.5205
106.46
40.5585
70.7637
97.9607
49.9724
71.1088
58.1743
111.054
79.8257
72.0512
45.5531
29.0341
103.542
63.0717
34.7047
158.624
123.361
56.4265
83.2325
39.9274
82.0533
99.5415
123.605
113.699
82.7365
38.3374
98.9556
97.173
98.6453
69.5956
96.8637
195.802
183.126
18.1637
46.2806
199.677
139.51
13.6517
74.9894
139.483
122.143
17.5949
97.6004
128.08
36.7719
49.1261
52.9709
126.831
35.078
45.6723
82.3031
55.7999
100.646
72.8875
111.866
91.6314
84.8177
74.1314
94.8857
158.947
47.782
63.5349
88.2362
137.105
94.7415
97.6389
22.3713
63.9714
40.2663
131.579
59.9124
63.3394
73.1049
54.8187
27.5267
103.194
50.6234
65.7975
129.77
89.972
197.759
102.736
27.2303
76.1601
134.37
135.521
96.8756
75.6354
119.63
43.4643
127.04
63.3485
170.944
53.4729
69.6023
115.325
117.968
93.5951
158.171
56.7538
98.4071
84.7473
149.803
122.894
77.3102
27.7615
34.4232
71.3
46.5007
24.7398
36.8019
44.0903
97.5385
65.7318
109.778
193.216
11.7562
113.92
106.882
95.1525
130.183
104.353
79.399
87.7863
187.581
15.5093
105.846
84.9618
193.784
58.0172
61.5009
35.9301
106.363
72.6826
55.3505
149.257
86.2023
109.832
59.5577
134.45
39.8971
36.3802
86.9069
117.941
44.2093
181.147
150.575
19.0358
29.8197
27.501
19.6219
53.4354
53.7188
120.221
27.9804
158.995
82.4288
72.4459
61.5196
78.3957
36.7708
133.714
134.69
81.5597
36.0515
59.7569
69.1713
35.2687
42.308
61.6215
113.836
44.9829
88.305
118.543
56.942
32.3524
69.2721
50.5862
43.2618
48.4531
79.9145
46.9293
95.7743
83.8522
120.623
85.589
119.575
27.8463
144.428
103.203
64.6515
88.9498
36.3715
44.4896
149.028
156.806
91.7078
121.158
71.5423
57.085
35.8796
14.4734
133.907
61.8909
57.3357
87.0097
32.3532
91.1644
142.37
100.258
114.61
69.8532
70.5667
77.6315
47.3749
87.7121
111.048
58.5697
133.177
112.936
74.4982
46.1026
108.706
95.6281
116.339
72.9698
45.6335
88.9453
51.9696
124.742
62.3699
99.8771
125.39
115.084
93.5823
52.1367
116.576
37.2183
65.8722
49.7055
39.0482
164.333
78.1467
96.1583
138.731
167.581
54.9462
91.6538
95.9753
90.5922
34.076
15.6408
87.7166
43.7852
145.691
105.993
40.8276
142.944
77.5669
69.3659
38.7988
62.4635
64.2495
98.8017
30.3611
138.596
68.9611
83.4195
53.0282
35.2922
119.542
36.7355
161.616
128.999
75.0792
110.216
77.4349
47.9312
73.176
35.0552
91.217
26.682
63.3943
69.4365
131.299
87.7705
116.293
114.028
57.1065
57.0656
27.3098
110.653
39.6848
15.3112
49.6533
125.839
161.635
18.5181
85.9013
88.1981
54.068
36.6703
187.996
147.805
129.272
11.3005
32.9674
165.61
128.321
17.67
24.1458
156.161
73.5824
40.8231
78.1086
119.635
64.0554
107.081
55.4737
160.745
40.1192
87.5829
109.047
92.6072
57.3253
61.8944
40.2546
51.7362
119.905
94.5011
104.663
63.2421
38.3785
59.85
129.005
22.2742
102.338
38.4351
105.038
120.884
176.851
15.9947
61.3919
184.307
101.194
57.4895
73.8604
34.1819
69.719
51.2064
50.1482
23.5836
114.705
96.629
82.3541
32.4029
79.5291
132.987
84.1741
69.9915
20.8137
34.0179
24.4031
130.57
99.4281
100.388
112.129
17.9289
126.505
27.5324
46.4495
48.3754
68.8277
64.7604
133.567
84.1971
46.6878
110.858
23.5929
33.0968
68.4072
66.0126
24.1676
184.127
72.7015
99.4404
71.37
97.2443
114.503
132.575
114.807
94.4708
129.792
28.5929
84.1287
19.1714
66.7283
101.048
87.5305
27.9637
74.7253
158.563
48.2811
17.874
12.224
74.287
155.354
31.1817
97.5684
36.6454
24.4593
124.131
46.6245
53.372
22.827
17.0532
135.159
16.2349
53.5673
13.1995
75.2564
82.292
116.286
17.4442
59.3637
136.219
16.3511
114.048
21.0051
44.3565
103.392
153.773
92.1572
105.03
57.305
120.137
125.289
132.803
47.49
75.2726
100.09
84.0942
219.095
55.2562
76.6664
114.477
91.3089
72.6255
115.252
108.381
90.0544
38.0964
67.1249
111.493
35.814
72.0759
127.526
56.7958
107.633
31.4395
31.9011
8.98269
55.3452
74.4485
77.1556
87.0391
57.8434
96.6233
102.571
60.5818
50.2938
36.8827
164.32
58.1998
60.2867
50.0872
172.57
145.775
58.7378
121.263
139.587
34.5017
159.592
127.416
92.8716
109.959
74.2678
75.7336
188.143
33.528
99.9145
85.6008
82.6404
90.7095
38.848
48.9818
81.7774
86.4892
63.0791
137.473
75.6796
129.094
99.3396
98.0601
45.5215
124.893
52.5475
82.6569
84.2255
36.8537
32.7717
110.412
57.9362
107.152
90.2718
52.3437
43.1286
74.5071
42.7197
91.3115
139.843
85.9618
44.3069
183.828
89.9187
224.544
114.646
80.8016
28.9264
83.0488
141.956
47.6891
90.1379
100.141
72.4777
17.4778
41.7091
105.355
241.863
246.754
42.3966
124.744
99.616
89.5356
26.4408
84.2846
140.62
83.7785
58.1255
55.1141
72.8586
136.731
17.9044
129.229
55.8944
82.9161
3.23908
42.7129
84.4649
60.1221
28.2414
90.5519
34.5125
99.6913
124.301
189.783
155.398
137.14
51.0137
79.1971
118.355
159.352
86.4002
109.445
117.411
83.8763
98.3328
108.274
93.7023
44.9705
74.7143
32.9885
106.046
104.377
50.8998
45.8947
76.4049
11.6008
7.83218
20.1935
59.3588
77.7453
91.2923
36.8222
104.533
14.0633
58.9891
58.8298
104.786
18.7966
67.5639
68.6438
131.574
155.002
146.549
101.722
42.878
93.2449
79.2907
80.6527
44.5576
90.2509
7.95957
86.4031
41.4169
38.8317
98.8434
83.6577
70.5865
146.237
154.619
129.524
79.9858
133.808
96.6797
79.4322
35.0264
107.24
87.0097
50.0022
53.0785
36.7049
132.868
56.8838
90.409
69.9843
92.6865
79.9927
87.1728
68.7686
164.321
3.88521
76.3047
86.6031
55.1932
54.802
137.219
27.0647
53.366
178.574
35.6182
93.5358
208.375
63.5592
105.279
30.6984
75.0785
34.0602
40.2387
45.421
93.3852
125.564
149.588
110.898
111.801
144.748
133.057
60.8549
48.9427
69.6401
106.226
30.5978
145.318
82.2427
69.1147
187.293
32.7745
78.1087
197.021
14.1711
98.2194
173.234
87.9564
104.024
65.3397
17.8396
66.1488
31.3958
81.6446
64.5549
56.0588
98.6121
38.9918
166.493
123.299
133.301
50.5011
125.949
120.173
112.87
92.117
44.9236
77.6617
55.3293
85.0299
63.9368
106.103
156.549
219.19
10.9751
70.3687
137.97
102.486
85.9575
109.753
23.1427
118.807
79.026
126.749
10.1276
37.6834
173.097
87.6433
130.211
156.184
43.8723
185.491
49.8556
37.7212
58.3122
90.888
121.015
132.666
54.9683
89.2925
26.6785
42.4682
15.6805
104.829
19.329
22.4916
136.133
176.606
112.271
43.7457
168.889
56.8677
31.053
26.0765
107.178
92.1555
135.832
26.5874
149.499
145.176
40.7367
130.757
159.487
110.935
54.0158
111.632
59.4047
66.9904
76.1642
48.8957
96.6642
164.19
144.136
80.8755
17.4171
57.4614
46.5366
44.9576
120.201
60.9994
54.8868
54.0041
114.951
33.3148
70.1494
50.5123
106.717
54.0088
92.3575
73.4804
89.9616
97.8861
84.683
13.8431
111.118
76.3446
86.436
22.1996
129.021
30.5564
135.998
89.4858
67.8403
80.3335
143.601
151.064
28.5875
169.985
216.665
92.8702
48.1708
52.0234
147.389
47.5663
97.4656
104.977
59.2656
43.7775
21.7369
54.5416
83.9238
90.6147
104.445
15.8953
84.5126
142.768
66.909
25.5687
54.1595
60.2381
127.741
101.239
79.3936
55.2082
95.9856
74.905
115.203
49.8053
72.5512
122.045
88.334
123.398
87.2034
40.2784
122.246
149.699
102.055
71.5446
38.6007
62.5914
141.163
75.3821
48.2503
93.4775
65.1226
118.941
94.8488
26.9829
46.5085
15.4591
144.669
117.011
101.525
93.4902
43.8385
30.5937
46.1343
89.8814
74.7031
64.5733
104.077
6.31334
107.562
114.771
75.1836
188.585
75.9263
89.6599
42.4914
67.4051
194.135
96.1823
37.741
47.7462
49.3951
147.054
63.5386
76.7932
134.126
53.922
41.4492
189.359
18.5228
107.433
17.8534
59.5536
78.364
105.168
157.74
80.3173
27.9236
46.8178
75.9571
81.1487
46.0837
174.596
73.6425
54.7894
103.775
120.838
138.993
125.023
113.091
100.983
215.722
51.7852
94.4442
93.9069
36.0706
66.635
86.0203
27.8186
28.6537
74.9077
112.073
103.547
30.6759
64.6354
29.9474
88.8545
83.1928
65.6677
53.4332
104.662
52.3382
67.2587
70.7969
136.576
65.976
74.3509
132.299
172.794
94.0169
58.9113
23.8389
132.558
59.1962
119.109
64.6276
190.729
149.916
107.082
58.552
114.375
128.095
170.946
84.0116
109.293
97.7068
109.883
53.931
154.236
35.2752
95.9267
55.4542
150.818
76.1853
68.3754
109.609
33.1295
15.6001
78.3889
40.3995
57.6645
49.3814
186.923
21.2074
58.6033
133.886
24.3926
25.6557
65.1794
58.5782
53.9067
88.9773
125.539
99.1603
160.234
156.837
90.0132
32.6821
33.1101
30.0346
170.603
160.807
98.3837
41.3507
29.1921
37.8783
10.622
130.274
43.0656
98.665
89.6114
93.4486
72.6212
90.1467
63.1764
61.4078
181.753
61.9056
104.047
38.5961
36.8053
66.3631
57.1674
11.7394
22.7532
16.7255
77.3351
58.2848
88.7792
121.058
86.376
75.5781
195.033
91.7448
88.259
89.2113
24.9436
166.445
80.6389
100.609
64.3168
52.8021
150.217
141.848
49.9475
106.666
123.894
148.867
125.386
49.1639
155.092
70.4775
20.3575
110.329
46.1247
151.663
93.5793
158.572
82.4598
45.266
56.2046
97.9357
72.4297
137.519
133.972
5.73301
133.478
105.798
75.8869
96.3498
126.079
31.0725
124.267
41.3335
81.8735
163.706
44.9554
79.0512
215.516
40.628
67.4329
99.5575
52.2379
105.657
92.0539
108.752
48.2411
140.661
62.2876
65.7585
82.2366
30.2238
118.905
103.394
88.6839
30.4741
110.278
82.5291
106.345
127.235
108.647
139.244
92.9294
87.58
53.8413
151.212
71.8863
90.2532
104.726
54.1563
149.102
36.2517
99.1808
4.75477
49.9275
95.5576
116.486
117.526
49.8467
31.0901
143.22
75.2304
88.5418
35.0913
51.9674
92.9322
76.059
36.9637
32.9808
38.9406
101.242
32.4965
15.3923
57.3882
67.3959
107.207
83.9791
55.3221
83.5919
64.3327
64.8458
75.5999
86.9723
98.5618
60.5132
55.4463
62.1058
59.1713
147.961
45.0095
22.8971
110.954
43.4613
88.578
130.76
55.4237
136.735
81.9356
93.2748
21.4194
36.7778
64.2909
36.0288
70.2055
118.292
85.268
38.6966
105.174
104.632
17.5295
51.7083
70.0836
50.6634
109.135
85.1405
79.2903
74.1001
110.331
131.882
159.905
131.53
50.5074
153.197
28.4846
129.025
69.7539
185.249
56.8444
50.2912
91.6155
30.4979
105.726
82.6522
63.7731
37.363
149.614
99.8694
133.085
83.6239
120
34.023
42.9071
83.0822
13.4212
59.4255
189.447
56.2635
108.877
51.4756
60.9523
88.58
77.5435
85.546
12.7593
91.3145
107.71
60.0384
48.8647
89.7482
147.336
122.76
55.212
93.5403
125.756
39.712
98.2962
61.668
20.6294
66.5641
147.663
69.5947
221.68
76.9494
77.1694
38.4386
48.7262
49.4623
52.9434
80.779
95.5867
74.797
23.1832
121.484
70.431
99.7035
4.3895
123.164
49.0998
27.3364
20.674
79.3712
131.921
181.863
68.5307
51.8784
57.9353
41.4358
35.2349
43.4235
19.0255
128.39
12.6662
70.3552
114.46
36.8052
94.9849
180.02
151.901
71.6684
11.8558
155.938
49.6731
93.2583
51.0428
119.333
101.254
116.806
39.9074
97.399
174.165
62.2012
25.1523
43.5567
66.165
121.871
112.699
23.8538
63.0273
17.0883
73.236
70.8481
54.8613
78.9648
101.404
46.0372
46.466
70.1178
130.524
52.7526
117.364
39.4821
105.582
31.2715
100.282
90.8169
114.046
84.0551
191.272
50.1679
93.2441
93.5474
29.6321
68.5928
99.0129
59.0245
99.1525
49.2458
18.0016
37.7307
99.8713
100.657
96.1061
96.489
91.2855
65.7761
71.9571
104.817
46.0289
108.471
56.0443
4.15776
17.8389
88.581
43.4975
50.65
44.442
12.1936
152.63
41.4071
110.243
73.3238
129.627
75.5682
79.8572
119.886
63.7875
58.2706
71.0058
163.304
111.757
133.624
66.2568
169.935
125.276
70.5206
159.489
53.8875
148.95
22.7528
73.5297
17.9607
68.7106
77.441
37.3391
76.2312
69.4262
89.1511
35.3164
96.603
70.0562
112.969
104.559
77.429
73.8024
116.27
77.3719
22.2712
58.2379
84.7784
122.498
195.989
85.0617
82.5538
87.3013
28.197
37.1749
124.67
50.2227
53.917
145.739
49.9968
104.159
117.704
208.048
77.5808
18.766
98.7577
54.7299
41.2815
92.9117
110.357
159.006
40.8477
193.334
36.847
77.6411
20.9055
51.8072
16.2298
44.6897
53.7561
33.4207
39.2449
94.3295
107.259
2.10681
137.671
111.656
19.2955
128.623
94.3057
54.7455
136.751
7.77646
97.6274
35.7598
44.3362
12.3453
26.5447
63.9506
34.9913
33.3148
54.1515
114.843
62.4246
48.7737
95.1455
87.2621
56.9853
108.216
94.9121
40.1618
3.9081
81.7584
77.3563
19.7316
38.4129
89.0382
100.332
56.3431
161.324
44.9946
13.0094
56.089
29.2421
108.225
62.0293
66.5462
107.88
97.9807
185.332
74.0161
47.4601
64.5964
113.197
23.402
70.041
68.1278
114.161
52.0064
29.9375
128.013
59.4055
163.96
61.2606
63.9837
82.8168
49.3211
38.9417
46.5954
73.0763
31.1389
173.616
54.4319
103.361
93.0972
12.128
52.7477
56.9338
112.876
116.048
17.7501
28.7084
8.94831
43.281
106.01
93.8589
56.0006
72.8257
126.767
144.695
157.026
81.4494
60.0734
163.647
53.489
73.1456
39.8414
30.2176
87.8438
112.135
66.9944
104.512
47.4206
72.2789
85.7348
99.8008
91.1995
108.935
89.2629
90.0224
71.1436
40.2455
163.398
84.973
86.2153
123.795
116.936
48.7016
52.0668
93.5215
54.0391
18.7471
59.0254
61.3176
224.822
91.0389
74.6509
133.425
11.8939
13.1517
77.0641
136.323
164.434
110.442
123.41
126.028
151.685
53.7793
84.4149
244.807
57.4855
80.9593
86.0192
70.1949
50.0971
117.033
78.2085
146.24
33.1487
93.8662
44.0806
91.2085
52.0546
72.8196
130.151
53.1255
121.062
60.2589
23.2254
120.415
140.714
101.262
49.0917
85.1999
124.068
67.3912
31.6121
143.421
66.9408
53.3043
137.78
66.536
106.159
120.855
92.4429
117.173
29.7328
27.74
91.0523
47.2892
74.4147
39.914
65.9408
112.167
57.9636
171.118
126.672
124.265
199.573
7.29366
116.423
55.8288
74.3058
9.10594
62.7386
93.8115
115.217
113.388
89.3307
88.9157
46.0997
30.2049
122.843
114.378
13.7104
123.591
35.7582
116.792
53.7757
55.5563
142.48
43.8086
117.778
34.4307
54.5589
67.6568
14.0967
155.438
81.4714
62.2317
124.153
90.4716
89.1483
97.3882
108.687
67.0489
147.787
32.0665
119.489
177.022
30.5704
98.051
92.66
10.1232
118.411
100.871
46.4029
171.41
54.347
42.7403
135.954
101.906
80.8702
111.266
85.1504
112.913
100.709
219.373
30.4211
68.4995
67.3117
43.1144
14.3061
125.809
58.9974
44.6079
90.3531
109.58
21.2414
99.0213
71.1443
153.025
155.277
94.7301
111.08
55.3243
147.037
92.1512
96.4281
157.364
79.574
121.371
141.733
141.442
128.341
110.55
67.3514
162.766
170.679
87.1782
85.4077
88.7995
50.5707
54.1679
52.8201
67.2409
53.9051
121.806
69.0615
132.08
74.6813
71.8378
55.9816
30.2204
19.8566
98.7225
92.0531
113.555
108.835
63.8464
46.535
77.1365
240.571
74.3865
82.5846
132.617
119.131
50.8498
81.4356
15.3898
69.7725
214.212
74.8648
121.673
15.2298
58.5823
12.7144
145.004
60.6839
189.848
101.329
34.2444
43.7366
18.5897
149.566
42.334
107.606
55.3264
36.6954
83.9492
5.9686
91.0218
166.811
64.9189
77.5025
107.24
82.0305
40.2495
101.798
31.6267
44.4257
48.6296
120.428
53.7988
37.8551
164.052
145.142
74.4572
68.8642
39.5197
123.637
72.676
72.7195
78.9175
97.3721
74.1618
124.99
101.69
64.5524
28.6221
93.6933
59.0755
41.9805
150.701
59.6077
105.349
74.2415
55.5968
197.967
159.022
97.9749
55.2911
120.122
121.3
73.9929
43.0199
46.1573
181.19
65.8311
96.5671
83.6891
134.92
119.21
64.468
74.9442
113.03
116.297
96.2296
95.4425
77.8971
79.8584
84.5184
101.58
72.7649
64.8552
101.561
218.865
108.126
43.5218
107.062
74.421
42.1255
95.3252
134.53
83.7434
74.8669
88.2567
100.013
91.1467
128.891
101.63
140.266
31.0849
46.2237
47.289
40.1458
20.9685
131.854
47.8018
23.2523
147.309
99.5761
62.9032
76.5679
91.2868
91.2576
142.011
60.6538
70.4366
143.337
149.161
41.5685
70.8374
66.5412
78.342
132.858
65.4586
44.629
24.0367
162.112
29.9563
174.923
138.4
54.2391
69.8829
14.7732
146.77
23.5869
143.546
64.2675
47.4661
76.6312
113.868
8.79358
82.3107
95.0856
109.244
21.7889
75.5382
41.2695
115.937
61.5665
52.3913
58.0353
155.649
59.2424
38.2308
98.1688
85.9547
97.8903
185.15
67.7011
87.1012
42.7431
102.562
34.5051
19.113
74.4191
98.3401
70.532
183.745
191.832
64.6515
81.8168
74.8691
67.7127
153.487
82.7224
60.1432
17.8056
137.899
153.16
16.1058
57.2251
33.069
168.886
158.745
108.013
30.6595
140.299
123.282
59.7849
89.2384
119.881
96.3453
96.4857
201.483
127.775
130.123
47.69
45.0743
99.154
58.2838
59.9806
175.129
106.072
105.994
118.58
140.327
116.877
32.4621
47.0055
116.031
75.8049
68.2585
47.1262
52.4441
12.8493
63.8381
57.5452
137.752
81.1954
122.323
28.4452
27.1844
51.2912
176.069
40.5381
90.4657
93.4896
59.0643
73.1632
70.4609
17.9275
61.88
45.176
58.9324
39.4559
158.16
57.1157
79.7819
45.777
84.0877
116.746
142.472
57.0755
57.8408
50.3627
95.4979
88.0739
161.07
126.994
59.096
22.5018
58.1611
120.943
73.2403
32.8647
119.375
82.8745
80.3002
140.013
8.85469
124.548
66.2649
7.2872
21.268
151.112
28.0369
41.3819
81.1696
28.4765
47.035
95.4715
87.7685
82.2492
32.3085
79.4406
29.0515
91.5937
35.5306
105.102
41.4402
84.4014
56.2144
120.099
145.008
45.7072
37.9645
194.493
100.371
107.496
56.0669
25.8103
67.6022
32.1603
111.857
98.2151
139.058
36.5042
100.738
30.1732
129.404
72.0623
30.3182
99.7667
129.368
74.2059
134.252
209.885
148.684
67.4686
16.3629
25.9346
51.9412
26.9058
85.9073
66.9487
75.6326
54.0487
54.1344
69.4144
105.928
63.6321
53.9547
55.5659
89.2857
115.801
96.619
95.7681
40.0728
19.9934
71.3325
77.9817
129.868
61.0642
143.534
30.9302
120.094
73.7033
51.1375
143.482
139.271
157.797
37.6121
143.025
103.547
65.7386
154.405
67.6829
127.706
28.0745
18.9875
77.2066
162.684
73.8387
84.9313
118.813
17.0507
205.258
47.3426
72.2077
135.481
52.2515
47.3288
93.7441
71.6131
84.107
165.04
67.6265
50.8596
148.191
123.596
91.3517
65.686
24.4693
36.7313
14.8396
123.143
20.2882
87.3429
170.937
58.5927
56.4019
99.6538
98.877
96.3182
19.6368
82.362
53.8409
41.5149
82.9189
58.92
179.567
26.2813
108.419
28.663
164.774
66.2268
84.3391
35.366
49.1712
129.151
149.246
90.7866
172.423
32.5552
50.4958
63.3727
64.6884
142.363
63.9176
60.7473
52.7667
205.652
108.085
78.6329
25.7982
86.3444
78.4953
120.023
14.1417
57.0138
105.286
107.16
69.2369
97.5458
62.5238
113.273
91.5541
196.766
107.34
37.3039
94.5506
120.011
64.2772
52.8381
84.306
131.665
65.4416
36.7942
67.9637
77.519
94.4943
55.8832
93.4837
183.157
69.5092
180.354
83.0216
113.277
12.7764
61.6982
86.9367
95.0117
52.2041
130.684
54.7445
79.8614
97.6002
51.342
23.7589
80.3755
42.853
30.108
7.31393
118.4
36.2832
41.7032
96.4789
88.9979
145.312
40.9431
16.8487
76.3861
61.375
92.3559
34.8423
192.802
42.0325
73.2225
111.146
103.929
132.221
9.72122
128.605
32.0858
63.6578
30.1274
161.249
235.732
59.8033
47.1484
75.8275
125.472
84.5144
54.9644
20.8959
93.6299
110.685
132.402
99.0763
141.163
142.38
21.7622
94.5455
55.7743
54.8391
90.2486
52.5021
61.9331
184.511
67.8529
169.481
100.379
63.469
121.041
131.157
111.038
39.5248
61.2454
55.2734
32.6684
62.933
25.2807
119.316
67.3769
65.059
29.6148
154.539
112.205
132.519
101.287
127.7
56.3574
76.536
120.098
39.8375
51.3049
70.6566
108.016
99.0349
41.6311
100.58
84.5439
12.2086
76.8837
26.2957
84.0655
118.143
59.0216
25.858
117.597
62.9941
91.7257
52.4077
81.9394
67.0709
128.607
93.0388
120.765
124.596
18.8671
131.818
17.1267
173.775
166.756
103.083
60.7147
39.3453
51.6967
115.358
61.8398
28.0489
102.792
64.9728
96.2187
61.0813
27.4029
85.5935
106.064
85.8693
170.047
98.9788
61.7213
28.388
119.276
89.1155
72.3115
143.657
146.428
69.201
156.812
236.814
206.111
105.83
79.8259
152.774
216.809
70.8615
32.0023
60.963
175.27
115.593
109.975
6.49836
67.0012
133.636
119.241
104.316
4.21234
56.0662
27.9578
16.148
45.2468
164.441
142.479
47.1195
70.4196
206.812
65.6053
93.3178
42.3512
124.74
56.2799
170.173
91.9263
73.6414
55
223.479
134.673
52.5543
59.4947
109.176
92.9011
68.5762
44.0041
130.813
34.296
58.6619
50.7318
176.952
92.9983
89.3261
200.568
120.505
75.0463
76.3698
49.4703
139.293
52.3221
55.0164
63.86
137.254
91.0719
14.418
106.402
94.8153
69.8659
125.876
63.8603
49.8386
48.5728
181.996
34.6454
93.3646
13.9498
152.685
90.9739
124.781
174.324
67.6592
123.693
131.87
75.4731
74.0345
122.678
19.3481
55.8992
138.353
161.3
42.7938
104.033
55.7626
81.5193
69.9448
107.943
62.2865
153.336
20.4447
94.2195
99.5429
55.199
86.19
21.7316
132.875
139.37
46.641
83.1239
72.9657
109.181
44.0268
91.6101
158.769
75.6234
98.2965
114.342
112.843
63.6189
73.0694
153.063
152.505
67.7895
19.508
46.5793
69.4527
118.178
46.6499
90.8712
137.368
67.6944
68.1125
120.047
44.6332
24.2047
97.3902
56.3526
19.7595
85.424
92.1892
14.5484
108.685
115.699
56.8525
55.0699
183.574
32.5619
36.9108
86.5971
129.64
117.849
10.6297
40.5513
66.6106
91.3316
105.929
49.2999
145.297
84.3849
73.2546
55.8481
85.3958
74.9124
28.1627
65.9601
53.2351
67.1049
39.4185
91.7218
48.8123
115.53
145.907
37.6946
77.3316
87.0506
60.9044
99.294
83.2783
91.5476
134.095
86.6171
62.0578
35.2439
131.011
35.5233
110.479
58.0197
81.7692
77.2655
33.3453
12.7774
92.2148
117.407
49.9053
113.874
53.4493
60.2168
103.308
174.703
86.451
104.628
141.247
83.4551
177.796
99.1523
117.726
52.291
78.4998
42.3048
35.6469
110.578
99.0008
50.9055
48.5176
149.179
3.00095
204.862
83.1336
33.3832
218.06
124.706
77.5492
138.708
128.609
189.566
170.373
97.8533
65.6273
68.4651
19.9852
159.993
67.6694
105.74
47.951
130.601
41.4714
95.8416
106.558
176.919
101.871
74.9179
103.132
61.4897
66.5817
47.1313
69.6455
45.3313
25.0665
137.581
7.08054
89.0794
72.4974
153.305
94.0948
95.916
33.9684
55.0941
84.0533
72.5104
22.6957
24.8717
106.695
107.943
68.845
72.1212
133.927
57.538
118.217
42.4484
68.2228
105.499
23.2693
72.3151
75.9545
120.453
62.787
160.701
131.456
98.783
63.2272
5.88746
101.936
56.057
134.527
18.0467
150.036
88.1362
183.65
77.2567
144.897
55.8141
78.6612
46.9296
50.4438
130.119
30.7373
30.6217
208.04
98.8981
69.8014
85.7056
96.0783
175.238
7.71245
30.9824
72.396
97.7718
33.7095
23.4084
67.9589
103.181
69.605
93.6244
36.6485
55.8801
54.7958
75.0678
88.5302
84.288
160.399
24.7099
47.7452
93.614
101.926
40.5325
103.131
98.8915
206.434
151.462
164.292
56.0559
35.2523
76.1804
70.9733
104.884
85.431
85.2816
66.9071
122.791
75.0874
18.6043
73.1955
52.7056
34.9031
104.805
81.6547
18.0575
65.3475
38.1187
145.257
86.481
41.7081
64.2029
49.3743
96.2188
72.3203
101.06
124.871
70.5452
142.871
132.062
110.315
94.3318
3.75909
121.958
106.955
122.483
129.488
115.521
60.9497
4.52458
17.068
28.2882
91.1023
158.39
131.296
35.3062
160.696
83.0398
124.047
140.432
37.3149
75.5906
62.1932
76.6273
154.329
99.8951
58.6674
5.70827
85.2475
103.53
54.0916
24.297
76.7196
69.3164
14.4567
28.7266
43.1819
80.1396
131.388
99.2181
33.7099
46.9643
240.443
139.628
116.437
51.8576
95.0015
212.287
166.824
46.0536
143.583
62.9155
117.077
99.2296
141.102
177.449
77.7652
141.414
113.759
48.5413
198.809
66.1386
187.283
20.8295
28.3917
94.7061
63.5982
133.813
209.988
97.2775
73.5836
44.7005
64.4156
54.3007
15.9437
97.8281
72.8855
64.953
97.1563
90.4705
119.351
51.1491
118.899
5.69977
154.687
220.04
66.0176
42.6136
61.3179
103.517
122.894
87.3243
97.2924
51.0742
177.987
62.8151
88.7399
167.66
49.8325
165.557
51.6178
108.321
51.8553
38.2876
98.1144
50.9162
106.488
85.962
56.5887
94.0546
120.074
109.441
85.3469
171.369
101.899
63.442
77.0358
94.6695
120.418
22.0478
109.466
125.653
118.698
48.9205
106.405
51.084
220.978
104.478
73.5337
93.6805
218.398
62.2605
53.0864
98.1555
140.801
129.966
160.115
181.231
29.8379
125.191
107.688
141.065
89.2178
102.757
152.051
23.4714
55.1572
224.994
124.117
174.487
158.172
88.616
71.4089
84.5302
58.6186
39.1626
75.2508
143.734
122.281
34.6762
160.385
141.225
79.6985
117.151
11.5806
37.8685
109.512
157.488
69.6288
45.8481
133.038
64.7995
89.9611
203.014
39.0142
91.4079
85.0987
66.4693
110.85
69.3314
59.7492
111.369
165.517
97.0608
163.561
20.9053
58.9577
147.865
126.342
61.9259
127.135
86.3085
97.2383
111.94
21.9714
133.323
168.283
149.524
203.152
160.711
129.345
55.8324
123.913
86.9461
74.6215
62.2225
97.5255
183.203
30.876
124.968
98.5539
31.6165
109.489
60.7183
83.9689
54.2414
108.926
104.6
42.3442
92.3879
200.914
162.33
223.401
136.685
123.552
141.28
57.6325
206.424
110.206
257.329
85.6433
165.348
56.4656
84.5131
126.635
124.961
102.62
102.828
216.535
76.1797
87.6356
98.0731
195.593
25.7753
141.801
150.19
37.705
155.182
26.2178
74.4561
151.496
140.222
183.709
129.746
133.152
46.1646
152.949
141.453
118.004
160.713
111.269
165.641
103.919
112.135
114.8
130.772
75.7112
120.139
119.554
167.358
120.807
72.7058
88.8362
114.341
18.6802
183.893
180.261
129.904
294.452
95.5806
13.3966
125.55
202.314
167.952
205.339
56.3236
221.819
66.4785
139.923
146.669
137.642
169.565
125.804
88.7675
192.927
237.624
70.6925
114.332
198.52
60.7911
95.0804
256.933
24.9738
176.842
123.086
145.535
151.977
194.588
100.352
156.825
145.203
95.4635
198.041
88.1577
237.162
109.718
153.487
223.801
128.026
171.299
268.702
158.758
203.255
214.65
132.994
70.2931
142.548
256.731
242.274
177.223
168.889
215.256
171.06
271.555
109.909
280.746
171.971
167.354
47.5266
163.685
220.893
243.575
191.708
305.923
234.624
191.602
197.525
254.128
195.609
117.872
180.096
246.826
172.203
199.752
240.057
248.312
291.872
282.846
274.688
166.356
206.112
234.87
324.131
226.113
216.783
147.229
324.602
279.567
307.348
245.544
181.528
195.804
179.377
189.123
211.215
233.161
311.693
227.619
247.607
252.986
355.478
329.193
255.851
256.184
321.323
323.889
337.908
383.673
331.984
346.259
410.152
278.5
383.472
305.896
399.75
370.727
524.55
418.315
472.851
436.751
514.313
583.73
411.048
596.902
720.498
642.791
713.324
759.947
859.257
781.77
966.534
974.656
1117.06
1169.83
1383.24
1775.41
1877.93
2011.13
1877.73
1774.67
1471
1057.3
681.113
597.825
1000.18
1340.17
1498.58
1812.52
1849.92
2031.91
1810.15
1707.29
1275.46
1404.92
1180.64
1149.6
1170.72
983.056
1031.32
1007.28
999.834
911.884
1119.38
1013.79
1111.97
1144.27
1253.79
1320.57
1305.43
1343.8
1531.41
1727.61
1809.86
2004.58
2249.84
2685.04
2979.67
3499.46
3988.48
4358.27
4495.44
4261.69
4036.09
3597.01
3285.07
2477.58
1895.63
1671.86
1360.42
1288.01
1168.45
1226.92
1108.99
1112.14
1019.62
1040.13
923.168
843.703
756.745
796.614
760.274
686.924
759.778
533.127
602.104
419.097
541.535
595.965
586.768
452.432
456.24
375.699
525.249
543.412
401.683
374.831
384.184
300.992
394.026
282.863
323.268
336.211
305.017
413.426
204.944
375.903
330.578
267.978
209.332
396.163
300.771
386.504
286.975
279.257
249.115
233.008
363.321
237.441
267.827
239.647
329.641
251.559
189.844
285.02
216.524
344.478
250.638
250.701
127.542
260.832
189.011
203.042
195.983
252.441
142.918
234.447
99.577
321.781
236.169
315.92
252.162
305.763
159.692
169.068
303.162
159.158
148.188
203.135
208.503
158.421
147.884
71.0864
152.999
187.285
275.001
327.157
100.38
190.481
229.788
178.02
196.942
119.617
138.471
180.96
103.867
274.121
156.651
172.565
209.155
188.735
143.967
151.635
111.132
124.299
106.773
120.792
88.4276
288.945
154.152
66.4403
27.1797
137.953
224.309
138.945
133.48
82.4959
224.643
124.366
119.182
164.371
111.712
248.885
102.247
126.329
195.743
153.015
155.865
220.304
99.7978
133.11
159.656
82.1285
164.878
58.4697
185.571
115.009
89.1949
62.7658
133.085
56.4099
137.645
104.8
158.558
130.438
201.255
200.007
68.5612
107.891
157.146
102.7
119.987
80.3323
196.82
127.01
43.587
88.7199
52.126
118.783
172.314
125.034
54.4636
24.4765
49.6314
65.2711
124.749
49.9702
170.757
137.791
136.11
90.4539
133.167
27.5161
125.787
52.9499
179.196
117.072
194.554
49.4613
66.5789
102.542
115.058
110.237
121.957
119.198
95.0277
85.6272
34.4581
104.412
90.619
22.9852
131.582
135.576
129.803
27.1471
112.044
128.206
108.828
120.372
143.629
104.592
109.545
112.218
77.3167
81.542
154.757
97.8455
78.0264
98.0499
87.275
192.311
187.797
87.6878
75.2433
193.324
180.447
126.713
63.7157
104.876
102.75
139.368
93.1518
99.7183
138.311
19.8221
110.529
48.9029
104.608
85.0661
33.1839
136.405
138.325
152.923
183.847
201.039
65.3643
112.1
73.4725
85.8163
109.653
105.412
100.321
126.336
25.2635
95.9914
96.6483
24.8012
59.3913
23.5608
82.4184
77.4543
148.176
142.296
31.3161
102.627
69.8387
136.757
141.585
101.563
82.1112
48.4843
171.847
58.6957
154.698
97.949
132.622
82.4324
89.531
77.8173
34.0319
74.6689
83.1452
120.395
123.579
29.9909
45.0682
46.8403
68.761
90.7719
136.34
99.6211
137.126
94.6518
91.258
38.0413
106.342
78.5615
89.3661
51.1498
38.0319
135.083
75.0025
27.8059
109.546
116.966
103.317
67.4618
22.7894
72.5564
81.3718
30.8629
16.5995
74.2538
105.563
49.6526
96.1898
160.381
105.52
166.653
71.8692
121.952
149.577
168.12
60.4357
80.8169
91.3142
137.114
50.8455
70.2852
128.99
106.042
32.3909
89.1217
71.9393
133.297
124.925
77.5693
34.1548
113.149
115.136
207.172
148.218
137.699
53.8329
11.2104
130.517
75.873
35.4785
70.4935
69.4796
102.625
53.3125
154.903
51.7794
123.812
30.828
54.3236
95.3691
26.1376
133.252
134.021
72.4929
145.359
117.253
65.8389
123.831
119.357
93.4821
82.8319
87.8251
62.5667
75.2378
136.465
57.0796
123.655
77.939
139.015
114.593
57.438
153.197
135.083
59.1719
145.211
53.5398
52.457
131.483
48.6166
125.734
157.884
6.27274
91.7998
36.4701
18.2821
169.548
78.1584
136.778
76.8468
144.137
58.4502
99.9416
172.219
148.014
95.8536
87.9658
52.1253
103.455
205.769
178.082
167.282
66.3943
26.0103
94.7003
85.07
53.5531
183.227
55.6664
96.7496
46.3465
101.356
64.6582
47.4844
12.0495
91.4009
131.067
99.7177
31.2137
63.0658
125.411
200.182
45.1738
66.7142
63.3112
68.5907
109.185
71.094
157.32
12.5222
223.037
101.414
34.8854
28.5161
75.0792
191.38
140.699
37.7965
105.076
57.6616
104.392
21.6638
83.2151
93.0872
188.851
65.6514
38.2586
82.0964
23.1875
159.633
12.0963
14.647
58.6936
39.8449
162.175
138.062
126.063
63.9232
55.6718
154.74
89.1371
38.4235
102.916
56.2518
77.6675
79.9869
130.446
55.7772
73.6533
86.4963
76.2494
48.7867
76.3956
119.466
84.5335
64.2451
111.16
115.044
118.437
89.8964
82.8551
83.511
116.084
84.0745
122.774
179.135
149.033
106.447
150.697
55.2288
40.6909
124.924
129.909
73.6744
56.2154
98.1749
34.2633
114.201
19.4163
151.382
124.58
127.123
108.703
40.3467
139.649
138.409
120.957
146.281
106.727
71.9446
109.453
79.3555
33.1048
136.646
107.644
73.0632
74.0187
113.034
115.145
35.4011
65.5359
46.1329
75.6352
155.403
62.2359
24.7153
187.646
99.6599
62.3512
113.205
53.5259
54.9398
47.9095
159.89
99.7508
58.5775
91.4898
222.77
63.9246
46.5326
131.062
130.315
64.7258
65.6276
99.7459
75.4708
57.18
130.88
47.1703
100.814
25.7129
49.463
47.788
29.0094
73.6438
56.6121
44.4242
146.162
61.0893
134.74
42.7184
32.5576
115.034
72.5568
44.1484
57.841
73.7424
64.4852
133.084
55.2139
147.378
79.5191
59.4467
81.2777
102.503
62.5266
80.4421
117.881
77.9282
81.2363
102.645
117.105
126.921
53.3729
88.5212
194.893
62.809
113.993
184.067
47.3559
127.299
140.516
115.855
63.0228
46.1542
32.9484
75.7851
122.239
264.548
128.484
93.1659
67.6079
139.133
195.126
177.984
144.165
36.2841
82.5031
32.6815
24.948
88.7856
158.081
93.0014
98.5218
47.8583
58.6061
149.368
8.71123
14.6361
61.8049
63.2779
78.154
69.6001
5.44725
128.214
165.805
34.2643
44.622
116.789
31.9411
150.044
16.1348
44.825
74.2361
120.888
123.096
98.4853
183.308
35.9908
32.1577
115.794
55.6945
167.733
87.4225
72.0825
30.3368
164.875
104.66
97.9942
81.7922
59.891
110.654
57.937
52.3959
79.3347
232.965
90.3609
172.359
77.5324
147.548
94.1859
114.038
82.3766
82.7351
47.0019
69.6877
40.1656
62.8674
79.1018
232.499
150.159
145.805
41.4283
49.372
47.624
75.7852
52.6835
42.6294
5.27733
118.97
129.701
52.0334
49.8158
37.9848
88.1256
27.7842
132.572
27.5358
44.8152
64.8405
118.25
93.0037
61.15
66.831
74.2386
145.713
73.322
67.1497
89.2343
102.96
92.9753
34.598
86.8277
101.59
62.626
64.2429
94.4312
105.525
64.7253
53.6026
50.216
96.4209
59.6713
52.6061
119.844
56.7942
211.065
74.6726
0.774634
157.101
92.3551
48.971
77.7383
46.3714
150.984
59.9436
44.8522
48.3146
46.7645
174.625
41.4669
120.397
103.419
85.4352
28.9051
94.0105
24.784
156.736
44.5842
34.2895
47.6603
97.7224
170.546
59.749
59.0439
102.738
168.211
43.6465
126.858
46.4938
104.083
85.9121
37.3929
124.796
155.322
127.867
38.9802
150.135
140.426
74.8647
58.5531
30.9066
72.0542
53.7122
28.5502
95.806
117.174
75.3185
15.273
57.5526
107.94
147.072
78.0833
66.4437
113.212
23.3143
69.9179
80.8841
118.635
155.576
47.2574
43.187
21.8536
119.042
119.086
145.856
28.758
57.2472
53.1581
63.8892
72.4383
86.6847
163.997
119.959
86.7187
65.662
94.6354
72.7955
33.5863
69.3419
56.7994
19.7954
166.588
54.4672
54.5901
34.5698
48.0997
34.1184
166.529
59.6021
27.9462
73.6596
18.1336
135.996
136.909
83.0434
49.2587
181.439
28.9067
149.912
166.943
138.428
87.4872
22.0862
112.555
98.5536
149.694
120.504
118.23
88.9861
141.649
68.8453
24.0508
122.619
57.8206
175.406
43.7965
50.58
80.6412
53.7214
131.389
13.2576
117.448
37.5895
128.854
111.406
212.157
99.5724
96.4641
108.861
71.4774
54.1039
39.5833
122.224
144.527
100.065
72.1487
85.7541
56.5927
59.8172
81.485
86.9237
183.086
139.949
75.4062
116.218
3.53078
44.0567
111.698
55.5925
37.1841
121.114
103.075
121.546
83.5774
38.3225
67.8613
243.198
80.8841
67.1906
85.6981
46.6361
49.9256
51.6079
44.2328
82.18
40.2314
143.966
62.7169
98.3296
127.167
21.5734
131.209
8.17565
66.7905
97.2074
74.8204
43.9929
204.261
85.063
57.4357
138.757
33.8328
83.162
75.7357
116.602
152.461
70.2494
84.827
73.218
66.0134
24.5243
141.388
71.3997
106.459
55.0832
135.518
74.0839
42.4704
63.1746
128.144
121.691
65.0802
12.9315
59.1594
44.8584
109.768
161.418
59.4784
91.0143
14.595
106.471
35.1535
22.5694
27.3964
96.9572
38.3915
147.409
122.59
65.3557
72.2247
77.6525
70.6184
93.1957
84.3913
139.52
49.7317
38.1238
82.3365
53.6955
27.2247
89.6889
59.9885
88.4156
21.9302
92.6427
116.296
107.207
71.4688
26.0703
67.5793
18.8284
27.6599
55.5925
4.74938
36.8584
104.106
179.344
34.8859
73.2276
45.7782
58.052
89.3672
128.297
52.1333
118.699
141.531
34.332
24.2954
158.637
219.946
74.1274
43.4708
77.4812
59.3935
120.814
24.7844
115.215
104.315
72.6908
42.2941
55.7565
100.185
22.3036
41.2508
126.595
26.6172
84.1622
109.739
99.9881
71.696
20.9101
40.0919
90.0316
83.1823
71.4627
58.0195
131.828
16.1931
26.5254
21.9083
39.7078
38.6216
90.331
74.5973
19.1264
16.2677
107.762
62.0977
66.1189
126.713
35.094
45.6359
82.965
92.1663
112.473
157.724
188.702
88.8142
38.489
85.45
150.568
203.573
50.4947
97.1227
82.1464
105.832
43.2238
55.5901
126.091
42.5763
121.201
73.9492
98.3898
138.799
153.094
67.5342
149.882
106.394
168.241
80.1585
107.292
35.7488
60.8614
45.5465
123.345
129.65
96.9008
4.04337
109.371
49.9851
92.7595
24.6364
80.8718
114.545
40.4712
26.7635
17.4268
161.946
135.516
39.5966
145.857
28.8791
89.3307
134.933
49.8945
62.0032
116.427
81.8166
112.726
44.9245
80.1811
78.6442
103.093
38.4003
118.329
99.6583
21.9882
147.026
181.263
136.904
15.2655
95.9828
48.8166
88.7089
110.057
16.7176
39.5045
19.1797
66.9034
100.245
37.5638
141.823
65.678
41.6943
81.4057
113.442
95.0999
131.81
115.575
59.9713
191.698
45.9525
137.804
73.8016
76.648
51.5261
55.4987
45.2895
156.424
17.8814
126.215
70.4662
19.137
111.475
85.8559
99.7812
48.7479
71.5533
169.771
50.3122
75.9632
95.3725
16.5501
55.4942
89.3504
24.8825
50.8435
75.2795
18.8289
92.7079
29.3227
35.8245
66.0278
59.9244
23.6269
120.813
107.203
38.7958
23.7609
69.6744
102.653
81.4941
142.031
29.3558
80.7974
46.5618
96.1618
71.0438
74.7821
81.3971
142.507
44.4823
29.3479
91.0514
173.775
18.0916
125.569
109.936
47.368
50.9229
74.7081
87.4878
31.8198
40.9887
24.9378
195.128
162.951
75.8695
97.8672
140.941
127.984
112.579
72.2711
35.3665
105.006
24.3205
54.5021
82.0247
42.3122
97.9505
145.877
147.032
74.7126
96.3701
73.6848
59.1499
133.364
115.529
35.524
87.2533
100.729
88.8323
12.5341
43.9079
73.1763
57.7344
13.8386
42.5288
84.4671
109.446
56.1688
80.1324
22.188
36.7396
131.11
104.671
10.4329
42.5081
62.2142
67.9104
76.0353
48.364
53.2987
59.2196
54.8382
69.9458
73.347
86.0638
55.4159
84.6537
80.7084
184.176
42.5922
119.02
132.863
73.4691
94.3766
94.6325
101.217
105.007
92.4857
215.518
165.546
68.0234
127.382
64.8948
38.1351
137.399
41.5825
150.284
117.971
92.9318
94.6797
112.73
72.9903
192.817
62.1702
93.2898
60.5761
106.578
96.2607
68.7589
160.743
102.956
60.7436
145.8
66.4407
15.0492
109.963
41.94
59.5972
31.7968
171.288
40.4786
26.4779
55.2264
152.989
161.811
2.5816
77.6059
49.6002
81.5307
133.592
108.631
60.3329
82.6756
131.448
83.1487
83.6625
161.676
91.635
148.834
160.45
80.0323
52.2123
71.8458
70.475
44.6004
75.4515
49.8721
96.09
44.1834
182.819
31.7733
41.401
57.5155
71.8928
43.264
47.006
163.688
85.7068
90.9111
82.5014
74.2196
113.7
45.3943
205.638
114.035
116.92
50.0578
25.5621
71.0217
43.1278
101.122
87.2586
32.7587
130.397
59.3789
104.994
68.3477
89.0207
8.23077
11.8813
95.8646
101.904
105.418
24.5886
87.5035
97.1554
50.1321
99.0786
69.5133
44.7329
60.9327
117.658
208.786
64.3994
76.3517
69.8297
73.6485
63.8319
36.0719
118.811
35.8103
51.3604
107.216
107.832
116.022
111.814
106.545
108.689
40.2462
13.1242
110.543
114.564
41.579
133.593
106.193
61.7042
52.1616
111.637
95.4082
130.477
118.763
24.5309
34.2252
101.876
19.1587
105.992
91.4777
91.984
36.0855
34.6931
77.4093
35.1596
113.459
41.2776
83.6092
50.8244
82.4058
80.5847
52.0247
123.194
113.428
75.2031
112.509
110.177
70.5732
129.171
22.6734
97.8967
104.793
51.6154
109.075
84.4173
83.5099
38.9537
92.4458
118.655
44.794
168.875
111.501
37.3528
64.6407
85.819
60.6328
63.1544
70.6522
93.9344
81.6614
79.7244
57.6073
41.898
142.205
112.781
115.8
54.311
92.7368
90.999
75.9277
103.562
36.4946
67.8772
114.111
113.091
6.28197
124.223
149.14
66.7524
166.192
38.0848
37.709
75.4165
264.974
58.2775
139.08
119.133
115.274
102.292
21.3389
38.8153
30.5141
129.583
38.6388
153.064
61.8993
89.3876
127.843
13.733
107.046
13.5372
3.12651
120.006
112.883
163.534
71.5007
77.9546
101.841
91.159
151.744
71.043
69.3261
54.5154
56.1169
52.5537
127.228
45.3789
63.6935
69.9435
108.14
112.56
79.2838
158.627
124.313
34.2586
40.3934
60.4905
57.8805
84.9407
102.458
78.3825
86.8489
138.226
15.5224
55.4686
10.3092
177.781
46.1384
153.26
133.988
82.1289
64.8344
55.6037
138.087
39.9391
89.5159
77.7951
58.6199
110.301
183.903
168.657
25.1544
127.21
249.253
17.5928
52.2792
137.944
60.7581
67.2873
94.4964
53.1328
138.059
256.115
128.164
74.0984
80.8773
36.8636
96.7168
84.5736
135.73
25.1136
63.8465
111.535
58.8587
65.6905
18.8114
62.8465
72.6397
49.3733
77.7155
138.675
122.107
44.9525
181.171
40.7553
132.724
159.605
72.5628
192.9
53.5876
117.42
74.4944
106.797
98.9094
32.2731
131.279
25.8949
112.544
56.4846
77.1736
74.8697
180.996
58.4152
74.0677
118.309
108.315
37.5734
17.6509
82.6279
90.0314
103.989
105.754
77.8924
52.0483
14.5016
76.3314
81.9907
63.0608
157.403
59.1997
106.617
131.376
14.0866
15.1219
75.31
17.0405
117.918
96.9964
172.04
35.743
70.1268
42.0414
112.195
25.751
70.3667
56.889
103.236
186.797
183.91
92.2029
135.083
83.4785
102.884
55.3107
72.2868
87.1133
165.804
108.447
40.9474
66.8425
86.7485
85.0111
39.2185
98.6816
83.765
77.58
81.3957
105.058
60.3371
40.212
86.21
45.2527
146.346
93.5559
66.0639
74.5418
17.7419
97.3661
156.257
182.645
112.796
91.7639
100.931
84.6151
128.072
139.931
148.103
157.101
42.0373
110.562
25.7164
78.3256
86.8277
28.1744
46.017
160.589
140.948
38.7449
110.773
80.0762
22.0384
138.64
136.171
107.267
116.379
116.414
123.762
75.9069
52.1241
57.5044
148.459
105.298
91.7795
93.1972
138.931
21.6291
52.0127
83.6069
77.1437
92.8519
122.315
129.656
59.0549
87.3012
89.7838
84.0597
99.4127
70.9868
68.8458
48.178
160.402
142.705
24.3498
178.297
41.0597
35.7811
39.2296
57.3883
147.089
100.543
49.4198
72.7756
131.914
122.762
102.072
2.41885
28.0713
92.114
94.6682
10.0008
140.979
51.7807
49.4586
76.8871
61.0206
43.9182
121.936
79.8741
88.9807
60.8304
55.2357
51.89
123.231
159.576
87.9206
122.054
40.1232
73.3024
27.752
86.384
144.901
92.33
86.3627
83.5943
36.9907
91.1156
86.7
55.1924
78.2987
51.9506
56.1339
122.143
201.19
163.858
19.4163
18.86
85.912
136.703
125.552
32.4136
27.3542
157.613
98.665
65.4357
37.7464
48.1606
81.9074
76.3154
96.4359
77.3682
104.057
104.209
121.739
37.685
62.5039
95.0763
64.6537
59.2595
23.0501
149.335
43.0138
134.494
122.324
77.7672
49.4597
24.669
88.3914
46.9281
135.375
44.4846
78.7768
174.079
51.3369
88.6164
101.556
72.0773
83.4667
39.762
131.12
131.817
177.265
101.816
69.9111
211.857
164.276
91.6015
85.0374
123.853
5.42552
89.7422
103.615
55.1506
39.203
101.124
26.0914
84.5711
29.3807
98.213
73.7326
29.8006
93.3442
62.1948
136.426
113.356
43.3443
28.2486
47.0642
11.228
26.9058
81.8934
81.6724
41.3392
74.7477
9.63046
42.9097
23.2122
129.276
23.1086
61.318
78.1753
54.9509
21.917
199.664
131.467
74.3674
56.8613
30.8233
118.166
48.5412
75.9488
153.478
64.3302
67.7779
185.827
50.3881
86.1591
17.6971
145.181
48.9191
154.07
75.3429
13.3598
120.985
73.5557
88.3873
72.2207
94.1514
30.8137
15.871
194.947
149.878
90.6695
91.1395
64.2864
65.9741
52.7109
29.2739
76.4217
91.7838
82.6827
42.9272
95.7686
46.3141
155.738
58.8971
86.0951
70.0573
96.862
127.215
217.167
61.7227
116.843
39.8774
86.2947
73.0442
59.0694
48.0313
9.76635
50.9848
162.877
86.2784
29.9492
44.5734
40.709
20.2279
108.71
43.4994
104.453
130.784
44.9301
64.8983
47.2266
7.73315
142.122
53.153
79.0051
62.8845
55.3179
19.0748
102.257
102.398
93.3454
27.8621
82.9725
69.6498
88.9544
50.4957
139.233
59.2745
40.6496
29.018
64.0393
83.5497
123.55
57.9182
20.5539
40.0516
154.549
183.12
82.1787
92.4646
171.271
177.861
101.845
83.6598
136.893
176.782
70.9994
105.13
142.117
200.138
40.1386
70.6508
29.0399
120.075
184.207
75.3445
43.1753
12.5423
68.7148
92.419
88.8198
154.378
51.0439
132.918
71.9193
98.1543
29.5157
122.649
75.2946
47.679
25.3233
23.019
65.8371
55.9307
43.2267
74.073
105.022
86.2444
120.747
19.5484
77.5247
35.9261
20.3322
89.4559
76.4027
105.479
62.3692
42.666
66.5685
71.414
21.4719
28.7291
18.7153
69.6465
60.5885
103.095
112.446
145.78
26.2257
189.871
51.887
52.392
183.101
128.113
9.91945
149.148
111.166
111.953
99.5762
20.3195
174.199
58.8217
149.028
73.9527
84.6386
112.17
66.2406
119.261
133.918
45.3691
64.3957
38.63
96.7642
84.5517
136.365
51.6555
142.596
68.2877
216.767
75.2157
74.9272
14.9164
125.506
8.04423
82.0766
112.554
79.4874
106.925
30.3012
125.72
118.694
116.74
36.9918
151.594
40.9997
103.111
72.9531
33.0628
109.646
53.2263
52.319
79.6919
104.656
163.964
73.773
70.527
166.88
150.565
115.115
134.269
23.0262
39.3189
117.684
25.3073
17.0826
159.603
55.1119
116.403
40.4878
88.6428
104.868
44.9776
112.291
89.0738
93.7247
51.2921
112.239
129.096
154.445
144.216
33.9599
64.7548
70.2055
61.1277
38.7989
55.0788
68.9692
128.018
75.6028
76.6114
95.043
69.8569
40.4906
86.0848
134.935
57.8192
58.5792
67.1422
49.9058
115.094
103.531
113.598
230.589
38.4119
107.141
106.466
66.9974
85.0991
108.501
75.4083
35.1994
159.219
49.9375
51.5847
53.8848
120.375
64.4384
19.3178
31.6182
62.3455
58.4552
59.9864
173.794
41.4033
107.063
31.1131
68.626
70.6391
125.539
78.3809
113.774
42.3916
76.5883
72.8115
79.4865
53.3016
66.4496
32.7681
63.2078
189.821
41.5415
62.3087
80.3274
41.9444
87.2185
68.5077
144.424
134.047
115.969
187.313
134.466
102.7
113.874
54.83
157.013
88.6611
64.2732
97.2763
94.2429
24.2578
79.0738
42.6097
64.2659
160.713
59.8671
188.289
85.9571
104.949
79.1932
68.9849
41.7382
47.2362
83.3624
127.775
117.493
110.807
52.944
80.984
166.023
46.1721
36.1821
75.827
78.6478
49.1225
48.8084
86.5397
123.695
44.1391
91.18
29.8006
32.3411
55.1815
156.043
69.5732
131.492
157.291
97.8394
130.263
130.866
98.6541
22.3862
31.8858
143.557
21.7408
75.5253
78.2172
54.116
115.261
101.957
8.14077
191.324
82.8112
140.192
114.591
42.7762
155.342
86.9156
56.8252
83.495
169.113
75.1822
145.836
134.997
41.2683
105.157
152.43
160.191
60.2741
80.633
70.5554
58.0838
55.6475
55.4621
65.5832
114.126
48.5819
58.6039
46.5345
44.8085
73.3788
108.889
92.3492
92.5914
62.0094
98.4955
103.477
102.989
94.3554
82.7507
113.969
164.802
82.2955
77.2398
113.411
6.54703
67.4321
112.455
134.527
84.5855
93.7689
74.235
65.2241
55.7706
84.108
147.545
98.9717
62.0065
68.889
52.4938
92.8231
116.71
100.609
49.6385
97.475
60.2374
104.133
110.654
128.945
86.3726
36.6891
107.135
109.242
41.7525
76.1626
48.4411
99.3358
130.639
87.3576
79.8694
91.5351
113.027
120.708
70.2771
51.7252
113.962
112.536
111.134
61.9966
66.5652
48.0798
14.3084
40.0444
65.8136
90.5199
104.816
53.1905
102.394
89.8413
42.6584
57.4793
38.6779
100.333
33.4696
90.7152
164.902
139.352
102.101
73.8465
28.454
111.503
52.0118
53.9519
46.4951
126.029
65.2757
68.2498
116.076
32.045
61.1336
53.1705
52.6649
90.5315
49.2125
142.638
72.7393
23.4036
57.9461
106.272
53.2669
108.544
113.02
74.6632
93.284
100.028
43.4297
143.179
42.919
124.605
106.625
81.2353
133.081
62.3728
150.806
192.99
63.6063
29.8527
111.825
91.0536
50.0101
128.186
100.456
124.857
67.7021
218.152
96.6434
41.838
30.9524
89.2573
50.213
38.581
43.1369
95.968
73.1927
91.1883
89.8684
23.8101
12.3779
61.73
27.7542
98.7543
114.102
63.0139
51.8589
94.8488
55.5632
113.888
185
116.464
67.2799
49.7227
33.0998
22.7082
127.443
41.6815
49.7069
139.883
85.9774
35.6302
23.4441
55.7799
158.904
75.6877
73.4963
61.9153
20.624
135.111
72.3343
52.933
39.9114
137.707
24.7919
179.945
25.1583
40.6755
83.0833
37.5718
54.2314
28.3526
107.766
95.5503
19.0583
64.3821
23.1678
110.021
64.9268
45.911
28.5131
14.8277
57.9422
81.0204
40.7618
14.999
34.1673
106.643
71.0354
93.1427
71.0252
69.1732
108.823
93.189
9.96394
53.2588
100.142
70.271
47.5977
169.03
71.7256
42.1088
120.343
39.155
118.211
74.7134
79.4084
34.5554
101.332
72.9789
28.8193
30.0599
94.7552
123.014
76.3667
40.0138
42.3809
58.0974
155.987
45.3005
92.5672
94.1913
45.4301
175.828
44.1089
134.312
196.831
25.2117
39.1888
90.6521
109.443
102.158
73.4763
90.5185
48.7808
84.3498
118.013
55.7167
33.8668
123.849
80.1941
70.1264
49.8174
152.222
34.5909
47.8334
207.894
51.4132
130.054
85.8904
19.28
25.1831
71.0844
157.329
80.9932
53.3674
100.378
97.3801
114.053
35.6732
59.6212
65.6481
91.0067
66.561
76.8501
42.0897
91.1005
86.8478
44.3398
68.5436
66.2001
68.3065
39.6635
155.625
75.0643
81.9785
95.2285
153.591
154.98
85.9721
62.4649
62.2394
132.486
56.6095
210.042
36.2261
94.0585
26.4365
134.549
92.7106
23.5705
27.3988
24.3621
90.794
183.537
101.098
56.1397
107.808
65.3592
101.25
90.7559
89.8105
137.024
77.545
91.9556
18.3693
36.7505
63.4618
65.8202
48.777
91.6155
93.0408
96.1245
27.7897
165.351
100.623
87.9613
113.8
29.9529
119.46
85.6514
193.341
36.9364
46.1071
96.0392
72.5275
48.8624
10.9234
81.3
151.894
50.5806
19.2219
91.6192
15.1711
22.284
135.843
98.7071
21.8369
55.9173
104.918
141.33
97.1101
50.8545
68.395
48.1659
159.25
60.3005
51.9094
86.6088
118.941
151.348
63.3289
104.781
193.504
45.0607
24.8313
115.202
102.529
65.924
176.93
66.0563
36.5672
51.5208
104.206
124.526
69.3931
116.36
164.097
134.33
103.252
75.8259
33.3025
58.7782
48.8373
138.169
79.7727
98.6545
9.33602
55.8588
68.5512
129.853
112.651
79.1701
52.784
34.1535
28.8576
49.0074
49.7591
40.9607
62.7208
86.4338
17.8986
78.9804
100.756
25.8173
71.791
96.2683
96.4859
9.6651
21.8149
75.2221
106.309
129.439
44.6665
110.623
108.581
32.9494
102.159
113.773
125.773
59.7025
73.9187
84.1691
104.049
64.6057
55.4063
5.85125
64.7082
104.528
55.5333
103.848
37.7639
212.148
62.6421
103.732
122.772
120.657
102.73
82.2379
103.775
85.0377
50.5718
69.4055
78.9755
58.8876
91.4988
148.78
22.2769
56.1819
151.715
161.283
94.4353
85.4623
18.8199
84.8627
70.0736
116.826
101.514
129.937
59.412
65.4424
101.422
47.7314
292.71
88.3024
39.0034
54.6848
103.511
109.048
66.1281
19.9163
77.8877
100.059
45.3895
146.128
37.4033
35.466
141.532
160.462
147.952
77.1932
144.253
25.5962
91.7831
5.56235
3.43731
35.4942
99.0915
97.7092
54.278
115.923
39.7382
156.98
45.565
108.352
82.3307
42.3502
155.688
14.8029
96.6187
161.128
65.8589
115.471
52.9876
123.832
69.5336
139.149
43.0575
89.328
98.512
18.3976
90.7631
46.6422
108.497
32.8087
122.116
92.2602
43.4953
157.141
74.4248
71.1527
88.7335
20.984
22.2035
107.382
26.823
118.946
76.8438
58.1337
60.9478
104.37
150.217
89.2194
132.555
8.60562
72.4408
149.256
12.6226
68.7158
75.6699
47.1477
120.314
98.1807
30.5456
69.4615
40.6986
63.8251
66.7234
77.1307
87.9673
89.9593
147.611
32.1111
101.525
197.303
118.379
94.9579
57.815
107.859
131.328
136.644
18.4102
61.4959
66.2707
138.219
114.164
131.902
28.5217
29.7363
202.604
120.18
42.8361
73.287
70.9692
176.54
90.6539
101.898
112.011
85.3655
93.7202
56.2817
68.2546
136.897
61.5873
79.3613
23.132
43.6335
133.065
74.4231
36.9826
97.9506
24.0029
110.312
66.5124
15.8687
34.8487
143.16
93.8957
58.382
86.2171
21.8348
83.6786
65.0874
46.9971
83.5492
20.5388
119.85
107.933
32.7451
172.847
62.8424
37.6937
39.6117
50.546
37.9712
60.9606
74.0595
102.298
89.6481
139.049
54.5546
126.041
77.4225
62.3301
134.071
46.0288
104.325
68.7348
118.823
34.4767
69.986
38.1155
139.985
54.4531
100.165
36.3949
116.646
102.8
130.992
151.146
50.138
72.8548
102.139
61.9921
46.9052
144.718
159.769
87.6165
56.3501
61.2801
64.5218
42.2383
114.65
31.0818
81.837
115.289
101.036
34.2839
97.2301
101.047
108.398
93.5108
125.074
81.826
69.8902
119.816
31.7694
18.9076
119.471
116.633
118.347
42.9682
60.6723
59.5549
75.1128
56.7534
75.3339
57.3922
51.6117
18.0564
93.9167
93.2436
104.886
59.2012
103.958
81.1402
42.6309
49.4468
45.0185
168.479
56.0038
177.075
40.9838
111.411
86.5063
100.173
40.3838
4.86816
60.8946
83.9975
110.355
165.397
21.6507
112.748
112.149
38.0031
62.0079
137.081
29.8513
45.9341
89.7669
76.8894
73.874
104.745
90.8302
136.416
123.77
42.7667
64.4165
131.369
106.033
68.8231
70.4161
43.9297
29.9821
38.4124
77.8951
102.757
53.725
79.5618
62.9302
99.1398
127.283
33.7165
36.7307
122.87
38.492
76.1373
73.9773
115.291
81.7298
108.279
120.142
62.2222
125.241
40.6265
36.4328
128.796
37.4386
36.5744
206.914
81.0981
145.785
27.9871
184.698
80.9125
173.025
20.7611
70.3671
114.271
152.086
90.1715
68.7723
154.805
63.8737
49.1062
45.6447
112.013
111.358
104.984
181.195
112.048
114.302
51.0718
46.3492
37.0909
36.8891
101.321
42.1353
68.0115
82.5421
85.0381
39.4109
107.441
117.262
18.9738
65.3182
91.6812
67.7611
21.4633
80.668
57.905
30.5008
93.1802
101.687
48.6002
35.5046
148.237
96.5001
88.5283
38.6831
81.8565
79.2097
100.811
159.118
69.1288
103.131
91.4574
40.6249
97.0425
40.2685
149.018
49.3212
14.1912
119.146
63.1012
45.5488
130.923
6.29383
12.1529
37.4605
242.435
59.4035
70.6237
62.9506
165.7
110.723
131.265
22.1903
136.219
70.1458
20.8269
92.2538
67.4926
81.6666
63.031
55.7279
74.8088
122.167
20.3302
78.9952
88.9122
84.7138
63.0897
8.66558
30.4342
107.547
119.779
69.9599
84.7211
99.1509
26.9037
28.5127
82.8286
72.8471
139.408
115.712
49.5434
157.072
166.176
104.551
169.356
110.136
83.8312
140.216
80.3801
93.6932
50.0257
89.5884
80.3131
62.4426
35.8947
16.268
87.4086
14.2971
53.3691
58.1259
70.723
83.3145
74.8704
83.9666
117.955
63.3276
160.351
85.0824
147.18
32.7625
187.392
110.556
108.867
104.707
33.979
105.174
17.8014
73.231
45.8095
120.609
130.117
34.6969
26.734
49.1924
68.2066
65.4645
47.7875
184.059
34.4014
101.707
83.5768
99.6245
10.0522
106.246
56.3199
89.9071
97.4131
49.8127
39.3948
41.5627
60.5771
20.5618
143.672
62.6881
57.31
107.241
80.7841
155.948
135.883
40.4789
100.953
156.891
33.6165
188.419
57.4717
105.726
43.283
32.7213
41.2237
108.843
156.459
56.9614
84.8714
57.4752
45.086
26.8949
112.745
48.148
114.257
40.2331
32.2803
53.8123
23.6055
109.972
1.27316
14.0264
57.0286
127.105
42.2271
41.2507
92.5599
105.263
119.352
98.035
125.441
125.632
56.2375
98.4039
180.495
33.0819
74.7463
120.815
102.107
54.2254
38.1015
75.6851
85.3492
106.383
86.1019
111.868
94.5489
62.0879
119.558
60.9916
101.619
32.5638
168.188
172.014
78.5232
43.8893
99.2082
65.7859
59.8816
66.6016
79.9982
112.923
8.94668
92.3338
36.5744
36.8601
66.104
34.7817
49.965
114.81
11.9428
86.0165
31.6046
18.5907
153.451
92.257
145.942
107.749
25.2603
96.9534
92.313
50.4301
75.1844
128.854
158.232
58.4512
76.1978
121.573
157.412
10.8746
13.5628
15.3746
188.679
146.556
45.5102
176.12
82.5779
50.0184
41.2966
9.45711
76.0438
76.8691
62.5375
32.5246
62.1597
101.988
64.9459
61.4911
36.8966
27.7266
150.654
79.2351
47.2394
27.5681
40.8157
126.713
130.915
54.4039
149.637
88.7942
60.3008
160.089
69.2722
77.0953
26.075
53.3139
56.1183
109.121
173.947
143.431
19.535
101.49
68.1195
85.0697
69.9305
83.164
64.947
126.052
34.0288
114.475
121.422
144.821
71.2329
67.629
69.3821
78.6075
57.6155
125.229
56.1781
51.1595
60.8987
19.7883
74.4995
85.7056
110.658
81.7197
107.7
111.843
150.325
76.17
73.64
38.2849
61.392
22.3008
114.496
66.1108
171.773
56.4811
71.2523
87.9912
51.9769
25.1192
98.2294
48.7458
63.6215
21.8735
56.5161
111.416
140.614
83.5121
85.52
69.7501
83.6511
118.747
121.467
120.95
176.871
24.168
106.254
51.7719
69.0755
49.8289
149.565
91.7957
34.8659
89.053
80.2746
54.7305
112.82
49.1343
46.8989
11.5117
14.0116
87.81
188.862
42.6716
47.6227
37.2841
58.9602
90.5825
48.9771
26.5369
74.0926
167.674
66.1474
28.8154
42.0425
118.405
76.0857
36.8241
76.9723
87.5811
155.337
86.0562
69.472
154.272
77.337
43.1513
30.508
225.875
77.6324
101.117
56.8641
49.6942
123.641
73.5509
51.9965
77.651
121.289
85.8434
23.9728
102.425
52.5845
151.995
18.6127
134.678
31.1161
115.017
87.5444
30.4017
112.002
84.4919
98.6442
115.485
36.8605
94.004
99.6729
73.4454
121.203
32.8157
52.1301
98.5267
35.1734
25.8973
64.5449
76.4175
98.2395
224.843
101.626
36.1598
154.861
104.348
66.2945
103.442
92.0679
72.4081
73.134
53.4531
139.288
48.5516
103.823
146.51
169.249
118.347
43.9144
107.394
87.8634
71.7487
86.7255
173.509
7.63841
155.727
57.7018
118.933
61.972
54.4314
57.9991
124.331
120.26
8.01173
39.1366
34.0967
21.0412
185.017
67.6962
123.493
84.1525
48.8312
62.8814
98.3161
43.9534
34.9978
151.587
81.1878
104.846
137.827
80.7987
84.1169
118.256
123.544
80.3128
159.828
89.8536
54.9818
93.4313
38.5462
10.4772
80.1448
175.977
176.111
19.2242
124.664
31.1665
47.3139
82.0868
94.2052
65.0365
59.8905
31.7072
13.8196
42.6776
35.9023
77.54
114.19
176.85
75.595
60.9509
59.0688
44.094
60.7924
89.1105
57.6026
123.8
163.431
135.231
99.9894
23.6771
157.382
83.7153
150.193
27.7644
61.3506
60.9321
64.8847
54.456
67.535
122.907
34.2542
106.392
85.1995
59.5517
85.0866
30.285
68.801
52.9062
13.7198
81.9369
64.0905
80.6072
160.979
135.33
77.9946
81.1356
84.2405
16.1517
34.332
59.8277
107.65
118.573
104.652
100.064
56.4939
88.3305
52.5685
66.6726
90.4386
51.4819
123.621
75.2059
32.5601
60.226
112.969
35.1105
27.4897
81.0501
94.0166
64.7133
87.0128
89.747
65.6676
16.6076
28.2835
88.8431
26.3818
79.8254
154.325
35.1506
104.502
88.2363
94.4875
40.7208
58.9173
138.198
65.2812
53.2285
37.8256
151.375
73.3485
145.065
80.1749
52.1055
53.5405
124.333
41.41
171.126
42.6145
101.611
65.3143
56.1726
37.9455
86.2586
108.462
112.23
49.5189
72.0489
99.3474
60.7845
75.5654
103.209
104.795
95.5402
90.0434
98.4748
53.7325
184.931
58.929
125.642
117.907
16.5898
56.777
66.6821
178.413
49.8069
106.049
41.2683
85.8467
63.1514
149.635
130.389
44.4603
115.951
111.742
6.25082
73.3126
26.4576
126.416
44.4525
83.6347
180.121
30.9583
91.9979
97.383
84.5401
86.8766
110.299
88.0179
193.674
35.7541
41.5646
44.7256
86.4856
91.317
37.344
98.3338
116.17
155.651
105.322
91.5774
89.9505
36.1636
31.5654
17.8518
22.5644
94.2597
24.1251
57.9424
106.843
52.342
26.2569
38.3294
96.9841
93.0371
31.6977
69.083
64.7638
109.562
77.0836
48.1672
63.4586
15.2187
109.512
49.6129
104.548
106.399
66.3006
27.1081
29.6324
107.224
167.49
176.302
69.3175
96.2388
176.751
170.334
74.4021
40.3994
97.6923
19.0051
61.4135
87.9681
37.3861
146.451
124.992
138.939
145.716
106.636
55.5312
19.4053
86.1859
110.466
203.662
96.8666
66.9329
104.777
73.1938
44.2464
249.304
17.986
63.6481
35.4956
73.3406
69.7659
18.6515
64.4572
50.0298
110.416
103.282
84.2869
47.7987
69.7196
96.1528
73.8378
102.473
154.614
15.7256
100.954
34.8114
80.7124
87.0883
8.96078
61.0195
59.9011
120.487
37.0865
62.8209
43.3872
123.084
26.9382
27.4554
40.6986
53.7713
64.6153
124.232
155.792
51.3593
84.7086
59.3502
143.447
67.5329
94.4721
144.938
114.909
111.526
85.512
47.3705
23.3226
124.873
38.8512
24.8914
42.7242
33.218
89.8255
146.08
75.5318
131.303
28.529
19.011
31.8455
53.9319
92.2185
80.8052
68.2618
128.175
149.005
44.4144
31.3205
153.071
104.813
34.7901
65.3249
31.5466
154.66
75.432
98.5132
36.9578
49.5493
74.068
155.771
51.8471
147.037
70.5492
131.698
32.2983
58.1801
85.2946
147.63
36.7654
73.5128
60.7858
206.519
143.361
111.781
126.708
152.351
93.6511
53.7072
118.078
37.4932
100.266
14.2713
21.9368
59.4087
60.6927
162.433
133.386
82.2598
3.74893
90.992
94.1645
111.256
75.2215
20.0735
60.3391
23.3
155.621
25.2532
104.057
39.1087
83.8608
46.1018
99.6968
133.722
56.2647
157.986
117.562
75.0406
77.9561
40.8797
38.8362
27.0324
80.6299
18.8092
70.8845
104.719
23.796
36.3482
116.478
105.651
191.135
125.622
46.5306
57.0106
188.514
24.9569
65.4785
159.433
152.804
32.6065
170.529
3.32706
80.2688
74.3066
39.4998
24.6079
74.5386
134.951
81.3117
41.8361
127.429
204.833
87.6319
42.945
84.6818
103.689
97.6476
79.8368
49.6472
98.1183
55.8154
68.9996
10.0138
119.609
77.4531
32.0859
45.9135
47.146
87.689
27.5823
75.3303
22.6336
97.6075
22.3986
47.4433
65.6439
5.00489
29.6586
121.289
9.14536
143.308
113.781
100.515
214.29
84.803
56.1942
69.4199
74.9348
19.5752
82.9538
48.5635
59.7046
40.6712
95.1886
83.5316
63.2808
27.8
108.294
63.4051
113.629
37.2016
31.1456
88.3219
87.9778
40.0852
32.143
13.7139
55.5149
32.4709
56.0256
82.3972
36.728
154.466
80.5764
127.646
114.282
10.9827
158.329
40.0655
55.3528
73.2959
113.886
43.7144
52.2185
13.5758
88.5686
101.931
95.1115
107.363
160.925
97.5237
103.32
253.67
58.1321
90.3763
44.6671
94.0677
133.779
106.065
60.791
146.79
36.3422
132.706
147.01
157.637
18.3208
47.3968
112.101
58.5197
11.774
38.4704
65.2958
151.358
159.579
74.1338
64.1924
125.169
92.4404
31.6201
94.7444
39.4464
145.992
101.212
86.939
57.1025
24.2789
93.1138
18.9934
157.08
62.2415
69.7481
151.936
9.19656
51.4052
157.759
44.9003
46.5499
51.6581
80.0166
136.564
158.101
158.41
30.4669
156.662
191.891
124.911
77.2048
105.702
66.5087
94.7504
132.495
116.78
25.465
113.916
54.3072
50.5017
66.9035
115.555
25.9432
12.644
108.849
30.6375
141.262
57.2103
49.9429
47.5724
51.898
124.875
70.7411
4.48738
112.38
138.264
47.0314
88.1042
32.0887
56.4269
164.241
77.5236
89.7702
29.3601
108.957
65.8255
69.4507
37.1978
70.1702
34.2352
65.1618
35.9136
25.1339
35.2903
106.408
119.43
48.9178
109.252
33.0857
62.4835
91.6186
128.398
114.15
56.3296
175.903
36.0051
49.4141
158.382
89.7247
92.2871
141.104
84.7435
69.8326
205.215
119.639
124.22
43.6471
63.2313
74.077
72.3815
87.1628
22.916
36.8489
79.0845
98.1561
72.3795
125.565
6.70964
49.1777
139.371
84.3681
50.3777
43.0451
97.9163
4.38096
71.2899
69.071
96.6596
41.7722
97.4662
47.659
102.463
76.1981
25.5854
92.0989
91.3919
17.4707
76.1092
49.2115
93.1451
65.2412
