Bruker BioSpin GmbH: the minispec
DataType=5
DataLimits=-81.9672,81.9672,8192
DataUnit=Freq/kHz,Intensity/%
C:\Users\student\Desktop\WS 25-26\A05\Chemische Verschiebung\fluor_ft_pcii_CFCl3_C6H11F.app
07.01.2025 16:54:32

-81.9672	71.5466
-81.94718603	47.6656
-81.92717207	43.9795
-81.9071581	77.5161
-81.88714413	111.861
-81.86713017	152.339
-81.8471162	10.8712
-81.82710223	72.6819
-81.80708827	89.2411
-81.7870743	47.0692
-81.76706033	65.7
-81.74704637	135.417
-81.7270324	104.054
-81.70701843	29.0958
-81.68700447	25.6804
-81.6669905	148.539
-81.64697654	132.826
-81.62696257	77.5747
-81.6069486	101.108
-81.58693464	79.8489
-81.56692067	92.8676
-81.5469067	108.569
-81.52689274	93.6211
-81.50687877	153.988
-81.4868648	77.7135
-81.46685084	28.2457
-81.44683687	141.766
-81.4268229	75.7134
-81.40680894	148.411
-81.38679497	155.319
-81.366781	49.604
-81.34676704	78.5024
-81.32675307	98.0655
-81.3067391	55.3504
-81.28672514	44.9674
-81.26671117	70.1341
-81.2466972	33.6579
-81.22668324	38.1682
-81.20666927	209.035
-81.1866553	100.288
-81.16664134	77.6463
-81.14662737	105.9
-81.1266134	42.2159
-81.10659944	45.4995
-81.08658547	64.5945
-81.06657151	29.0167
-81.04655754	43.5033
-81.02654357	106.523
-81.00652961	108.974
-80.98651564	127.48
-80.96650167	33.6363
-80.94648771	70.6373
-80.92647374	52.0209
-80.90645977	80.5281
-80.88644581	169.173
-80.86643184	32.1453
-80.84641787	55.3089
-80.82640391	54.2474
-80.80638994	193.605
-80.78637597	1.26262
-80.76636201	102.719
-80.74634804	126.349
-80.72633407	64.4625
-80.70632011	123.502
-80.68630614	160.079
-80.66629217	72.6072
-80.64627821	47.8908
-80.62626424	155.629
-80.60625027	115.654
-80.58623631	112.725
-80.56622234	130.396
-80.54620838	103.873
-80.52619441	59.8429
-80.50618044	131.048
-80.48616648	118.034
-80.46615251	75.2101
-80.44613854	72.4602
-80.42612458	9.85725
-80.40611061	134.476
-80.38609664	90.7828
-80.36608268	176.916
-80.34606871	153.098
-80.32605474	108.487
-80.30604078	137.894
-80.28602681	67.0146
-80.26601284	62.0543
-80.24599888	60.3792
-80.22598491	90.3131
-80.20597094	103.756
-80.18595698	52.8661
-80.16594301	63.1843
-80.14592904	95.6918
-80.12591508	39.7327
-80.10590111	143.06
-80.08588714	51.831
-80.06587318	118.131
-80.04585921	123.966
-80.02584524	63.9655
-80.00583128	64.8138
-79.98581731	117.129
-79.96580335	39.2995
-79.94578938	79.3036
-79.92577541	65.2722
-79.90576145	78.9467
-79.88574748	76.1432
-79.86573351	113.322
-79.84571955	209.919
-79.82570558	79.6458
-79.80569161	96.475
-79.78567765	83.9722
-79.76566368	93.9664
-79.74564971	63.6022
-79.72563575	32.7307
-79.70562178	102.057
-79.68560781	122.397
-79.66559385	101.441
-79.64557988	84.6521
-79.62556591	79.4942
-79.60555195	93.2325
-79.58553798	132.137
-79.56552401	58.1988
-79.54551005	175.579
-79.52549608	124.342
-79.50548211	116.774
-79.48546815	107.525
-79.46545418	97.8236
-79.44544021	156.111
-79.42542625	156.567
-79.40541228	41.8047
-79.38539832	60.811
-79.36538435	79.1475
-79.34537038	90.1569
-79.32535642	46.3653
-79.30534245	154.839
-79.28532848	103.524
-79.26531452	104.336
-79.24530055	33.7867
-79.22528658	31.7844
-79.20527262	43.7956
-79.18525865	114.723
-79.16524468	118.07
-79.14523072	11.0001
-79.12521675	120.788
-79.10520278	52.448
-79.08518882	75.8176
-79.06517485	156.618
-79.04516088	81.0485
-79.02514692	108.684
-79.00513295	63.7116
-78.98511898	77.4262
-78.96510502	64.6412
-78.94509105	18.3167
-78.92507708	88.0641
-78.90506312	76.6644
-78.88504915	157.494
-78.86503518	16.6533
-78.84502122	96.5107
-78.82500725	77.8054
-78.80499329	81.4428
-78.78497932	64.1792
-78.76496535	39.1877
-78.74495139	227.14
-78.72493742	135.873
-78.70492345	31.9916
-78.68490949	52.2347
-78.66489552	80.5401
-78.64488155	45.0145
-78.62486759	118.323
-78.60485362	98.3967
-78.58483965	151.405
-78.56482569	84.4469
-78.54481172	45.0749
-78.52479775	51.3496
-78.50478379	112.326
-78.48476982	35.1957
-78.46475585	41.9663
-78.44474189	157.729
-78.42472792	65.1199
-78.40471395	119.758
-78.38469999	93.664
-78.36468602	75.5386
-78.34467205	117.343
-78.32465809	180.424
-78.30464412	96.7765
-78.28463016	4.83708
-78.26461619	93.3526
-78.24460222	81.9509
-78.22458826	45.6673
-78.20457429	56.5781
-78.18456032	33.778
-78.16454636	33.2213
-78.14453239	14.9378
-78.12451842	124.635
-78.10450446	63.8033
-78.08449049	50.8424
-78.06447652	99.022
-78.04446256	36.9407
-78.02444859	38.1943
-78.00443462	139.146
-77.98442066	114.253
-77.96440669	84.9572
-77.94439272	64.056
-77.92437876	19.9145
-77.90436479	105.214
-77.88435082	88.6225
-77.86433686	47.8142
-77.84432289	146.077
-77.82430892	63.2281
-77.80429496	188.938
-77.78428099	37.3065
-77.76426702	51.5575
-77.74425306	55.6569
-77.72423909	102.451
-77.70422513	97.6708
-77.68421116	163.979
-77.66419719	70.223
-77.64418323	51.8209
-77.62416926	34.2059
-77.60415529	133.446
-77.58414133	39.9786
-77.56412736	64.7312
-77.54411339	109.65
-77.52409943	109.152
-77.50408546	79.2561
-77.48407149	88.3712
-77.46405753	13.1362
-77.44404356	68.4396
-77.42402959	100.529
-77.40401563	74.3727
-77.38400166	79.9675
-77.36398769	55.7948
-77.34397373	136.933
-77.32395976	122.2
-77.30394579	25.7533
-77.28393183	133.022
-77.26391786	138.346
-77.24390389	97.787
-77.22388993	134.796
-77.20387596	55.7246
-77.18386199	62.2545
-77.16384803	110.432
-77.14383406	160.547
-77.1238201	112.921
-77.10380613	129.869
-77.08379216	108.853
-77.0637782	168.437
-77.04376423	77.8178
-77.02375026	84.8545
-77.0037363	62.2416
-76.98372233	99.0532
-76.96370836	111.052
-76.9436944	13.7015
-76.92368043	77.5584
-76.90366646	30.675
-76.8836525	55.3667
-76.86363853	61.9868
-76.84362456	24.2383
-76.8236106	105.661
-76.80359663	174.15
-76.78358266	42.5595
-76.7635687	18.7167
-76.74355473	148.366
-76.72354076	88.2009
-76.7035268	31.6237
-76.68351283	100.255
-76.66349886	28.0351
-76.6434849	101.971
-76.62347093	13.6573
-76.60345696	69.8814
-76.583443	123.829
-76.56342903	128.741
-76.54341507	137.36
-76.5234011	134.622
-76.50338713	111.22
-76.48337317	64.6791
-76.4633592	116.728
-76.44334523	77.2753
-76.42333127	73.0095
-76.4033173	179.425
-76.38330333	49.0591
-76.36328937	173.895
-76.3432754	32.0217
-76.32326143	75.8635
-76.30324747	47.9702
-76.2832335	82.5808
-76.26321953	10.8221
-76.24320557	53.0777
-76.2231916	53.2091
-76.20317763	139.506
-76.18316367	73.3329
-76.1631497	66.3789
-76.14313573	65.8775
-76.12312177	111.165
-76.1031078	47.6231
-76.08309383	35.5609
-76.06307987	23.9413
-76.0430659	11.8647
-76.02305194	165.313
-76.00303797	59.5387
-75.983024	122.293
-75.96301004	39.7935
-75.94299607	91.3287
-75.9229821	80.3246
-75.90296814	197.288
-75.88295417	166.355
-75.8629402	85.6027
-75.84292624	30.2264
-75.82291227	103.396
-75.8028983	84.6139
-75.78288434	31.8022
-75.76287037	60.5676
-75.7428564	86.9328
-75.72284244	115.055
-75.70282847	35.9626
-75.6828145	122.94
-75.66280054	26.6258
-75.64278657	72.8875
-75.6227726	61.4033
-75.60275864	66.9246
-75.58274467	120.902
-75.5627307	143.66
-75.54271674	145.608
-75.52270277	117.039
-75.5026888	35.5001
-75.48267484	75.3195
-75.46266087	29.7192
-75.44264691	100.792
-75.42263294	55.5649
-75.40261897	36.2177
-75.38260501	80.1511
-75.36259104	83.5735
-75.34257707	51.7134
-75.32256311	68.1908
-75.30254914	48.2455
-75.28253517	47.038
-75.26252121	70.581
-75.24250724	143.007
-75.22249327	50.8058
-75.20247931	127.996
-75.18246534	110.954
-75.16245137	151.156
-75.14243741	44.7042
-75.12242344	70.6576
-75.10240947	156.322
-75.08239551	123.889
-75.06238154	25.6047
-75.04236757	98.6876
-75.02235361	95.2305
-75.00233964	71.8677
-74.98232567	71.3911
-74.96231171	44.9633
-74.94229774	55.9566
-74.92228377	166.718
-74.90226981	58.3298
-74.88225584	62.4335
-74.86224188	89.0885
-74.84222791	23.6181
-74.82221394	178.205
-74.80219998	125.082
-74.78218601	7.88495
-74.76217204	76.4759
-74.74215808	78.0559
-74.72214411	35.8416
-74.70213014	28.4111
-74.68211618	144.365
-74.66210221	122.24
-74.64208824	71.4145
-74.62207428	42.5087
-74.60206031	114.023
-74.58204634	94.869
-74.56203238	84.2089
-74.54201841	80.2746
-74.52200444	60.9008
-74.50199048	72.5851
-74.48197651	40.6961
-74.46196254	51.1248
-74.44194858	107.604
-74.42193461	57.0059
-74.40192064	76.0248
-74.38190668	77.427
-74.36189271	85.6876
-74.34187874	47.5579
-74.32186478	73.9062
-74.30185081	170.139
-74.28183685	94.1548
-74.26182288	67.1766
-74.24180891	82.8757
-74.22179495	73.0327
-74.20178098	153.641
-74.18176701	106.552
-74.16175305	44.6848
-74.14173908	29.2207
-74.12172511	113.736
-74.10171115	126.068
-74.08169718	116.922
-74.06168321	78.5795
-74.04166925	21.1794
-74.02165528	47.9909
-74.00164131	122.339
-73.98162735	101.807
-73.96161338	76.5674
-73.94159941	42.4245
-73.92158545	122.605
-73.90157148	60.0912
-73.88155751	66.4528
-73.86154355	103.733
-73.84152958	120.064
-73.82151561	155.268
-73.80150165	79.1856
-73.78148768	55.7849
-73.76147372	56.0118
-73.74145975	143.691
-73.72144578	65.5366
-73.70143182	52.28
-73.68141785	62.3849
-73.66140388	78.2464
-73.64138992	105.389
-73.62137595	47.6804
-73.60136198	89.273
-73.58134802	83.4508
-73.56133405	90.4597
-73.54132008	89.1437
-73.52130612	65.1798
-73.50129215	62.348
-73.48127818	53.0842
-73.46126422	76.9497
-73.44125025	17.128
-73.42123628	117.227
-73.40122232	63.4852
-73.38120835	32.9884
-73.36119438	116.033
-73.34118042	100.327
-73.32116645	83.4898
-73.30115248	172.339
-73.28113852	44.8675
-73.26112455	88.8382
-73.24111058	24.0916
-73.22109662	152.474
-73.20108265	96.8757
-73.18106869	124.906
-73.16105472	45.6916
-73.14104075	98.0228
-73.12102679	71.0154
-73.10101282	64.4532
-73.08099885	151.511
-73.06098489	52.3732
-73.04097092	89.2985
-73.02095695	25.1055
-73.00094299	110.364
-72.98092902	51.165
-72.96091505	104.88
-72.94090109	61.6298
-72.92088712	95.9211
-72.90087315	41.2359
-72.88085919	44.535
-72.86084522	72.9338
-72.84083125	62.1597
-72.82081729	37.5783
-72.80080332	104.942
-72.78078935	132.438
-72.76077539	8.46174
-72.74076142	77.0394
-72.72074745	70.6417
-72.70073349	92.2345
-72.68071952	77.0718
-72.66070555	65.3088
-72.64069159	47.3951
-72.62067762	18.978
-72.60066366	171.223
-72.58064969	91.7005
-72.56063572	44.71
-72.54062176	43.8662
-72.52060779	23.3604
-72.50059382	118.17
-72.48057986	63.0099
-72.46056589	158.669
-72.44055192	135.041
-72.42053796	35.3463
-72.40052399	192.984
-72.38051002	74.9636
-72.36049606	74.4286
-72.34048209	106.994
-72.32046812	51.4192
-72.30045416	20.532
-72.28044019	34.2346
-72.26042622	91.7539
-72.24041226	63.4827
-72.22039829	140.467
-72.20038432	75.209
-72.18037036	92.5946
-72.16035639	100.03
-72.14034242	60.4388
-72.12032846	76.6362
-72.10031449	112.573
-72.08030052	183.618
-72.06028656	91.1224
-72.04027259	162.176
-72.02025863	82.384
-72.00024466	67.5692
-71.98023069	99.8524
-71.96021673	108.926
-71.94020276	120.911
-71.92018879	84.8974
-71.90017483	55.2467
-71.88016086	101.593
-71.86014689	34.4168
-71.84013293	91.4377
-71.82011896	110.322
-71.80010499	58.6148
-71.78009103	30.3963
-71.76007706	72.5506
-71.74006309	113.417
-71.72004913	110.884
-71.70003516	97.0657
-71.68002119	74.1883
-71.66000723	87.7812
-71.63999326	55.8307
-71.61997929	159.136
-71.59996533	75.2601
-71.57995136	51.0513
-71.55993739	91.6686
-71.53992343	45.1837
-71.51990946	64.3706
-71.4998955	29.4978
-71.47988153	53.1668
-71.45986756	125.108
-71.4398536	112.611
-71.41983963	44.4293
-71.39982566	110.683
-71.3798117	59.4278
-71.35979773	56.6279
-71.33978376	83.2947
-71.3197698	54.9337
-71.29975583	41.269
-71.27974186	74.8747
-71.2597279	130.194
-71.23971393	158.137
-71.21969996	8.05656
-71.199686	65.9417
-71.17967203	76.9378
-71.15965806	28.638
-71.1396441	79.5694
-71.11963013	111.534
-71.09961616	144.213
-71.0796022	106.157
-71.05958823	46.3562
-71.03957426	30.9285
-71.0195603	40.5111
-70.99954633	34.9034
-70.97953236	92.9109
-70.9595184	115.949
-70.93950443	47.6364
-70.91949047	137.191
-70.8994765	98.6486
-70.87946253	78.2066
-70.85944857	97.9192
-70.8394346	277.116
-70.81942063	138.084
-70.79940667	101.801
-70.7793927	46.0738
-70.75937873	72.3679
-70.73936477	187.556
-70.7193508	86.4973
-70.69933683	43.1925
-70.67932287	25.3341
-70.6593089	31.1196
-70.63929493	122.349
-70.61928097	96.9856
-70.599267	7.85349
-70.57925303	1.98012
-70.55923907	75.74
-70.5392251	71.6446
-70.51921113	60.3361
-70.49919717	56.6098
-70.4791832	168.881
-70.45916923	87.9068
-70.43915527	176.076
-70.4191413	68.8401
-70.39912733	61.081
-70.37911337	65.6326
-70.3590994	58.2025
-70.33908544	62.6359
-70.31907147	178.425
-70.2990575	103.305
-70.27904354	110.254
-70.25902957	128.513
-70.2390156	69.2967
-70.21900164	101.734
-70.19898767	84.8177
-70.1789737	55.4273
-70.15895974	55.5271
-70.13894577	31.6232
-70.1189318	83.247
-70.09891784	55.8272
-70.07890387	69.8097
-70.0588899	53.3343
-70.03887594	64.3638
-70.01886197	66.287
-69.998848	107.117
-69.97883404	32.7918
-69.95882007	98.6801
-69.9388061	47.5701
-69.91879214	177.908
-69.89877817	64.4198
-69.8787642	119.878
-69.85875024	132.056
-69.83873627	98.6856
-69.8187223	87.1668
-69.79870834	111.97
-69.77869437	202.892
-69.75868041	147.727
-69.73866644	119.375
-69.71865247	81.1924
-69.69863851	102.705
-69.67862454	89.835
-69.65861057	38.7346
-69.63859661	67.752
-69.61858264	46.4261
-69.59856867	177.266
-69.57855471	91.1773
-69.55854074	129.084
-69.53852677	64.6775
-69.51851281	158.274
-69.49849884	86.1948
-69.47848487	117.894
-69.45847091	88.0561
-69.43845694	62.1989
-69.41844297	149.111
-69.39842901	88.0324
-69.37841504	67.6576
-69.35840107	84.6175
-69.33838711	92.0193
-69.31837314	34.7376
-69.29835917	115.962
-69.27834521	28.583
-69.25833124	52.7622
-69.23831728	71.9462
-69.21830331	115.619
-69.19828934	73.5688
-69.17827538	136.908
-69.15826141	43.5373
-69.13824744	71.6313
-69.11823348	133.645
-69.09821951	106.129
-69.07820554	80.7959
-69.05819158	64.2456
-69.03817761	48.9403
-69.01816364	67.4484
-68.99814968	98.1088
-68.97813571	105.279
-68.95812174	84.0865
-68.93810778	87.0893
-68.91809381	43.1877
-68.89807984	48.1179
-68.87806588	95.9594
-68.85805191	57.611
-68.83803794	14.1967
-68.81802398	103.082
-68.79801001	97.8872
-68.77799604	66.4158
-68.75798208	90.7442
-68.73796811	52.3279
-68.71795414	58.8729
-68.69794018	130.596
-68.67792621	145.023
-68.65791225	131.246
-68.63789828	158.892
-68.61788431	63.1712
-68.59787035	99.8792
-68.57785638	59.5405
-68.55784241	97.9717
-68.53782845	25.1772
-68.51781448	54.9746
-68.49780051	30.3361
-68.47778655	122.722
-68.45777258	67.7935
-68.43775861	19.931
-68.41774465	86.0712
-68.39773068	50.671
-68.37771671	40.207
-68.35770275	91.9272
-68.33768878	33.1002
-68.31767481	150.005
-68.29766085	100.366
-68.27764688	142.609
-68.25763291	10.6168
-68.23761895	99.6419
-68.21760498	150.715
-68.19759101	26.3626
-68.17757705	93.5522
-68.15756308	143.444
-68.13754911	26.7123
-68.11753515	27.8563
-68.09752118	59.3593
-68.07750722	159.95
-68.05749325	119.009
-68.03747928	175.497
-68.01746532	168.162
-67.99745135	21.7088
-67.97743738	147.554
-67.95742342	36.7872
-67.93740945	142.159
-67.91739548	24.6052
-67.89738152	53.1024
-67.87736755	113.984
-67.85735358	105.094
-67.83733962	86.3492
-67.81732565	77.1756
-67.79731168	33.2332
-67.77729772	118.395
-67.75728375	98.7675
-67.73726978	30.8659
-67.71725582	85.5511
-67.69724185	41.6908
-67.67722788	143.327
-67.65721392	102.255
-67.63719995	92.6522
-67.61718598	78.6063
-67.59717202	183.166
-67.57715805	53.4344
-67.55714408	77.3219
-67.53713012	35.9815
-67.51711615	107.038
-67.49710219	147.628
-67.47708822	80.4111
-67.45707425	136.499
-67.43706029	109.89
-67.41704632	185.435
-67.39703235	83.3595
-67.37701839	60.1095
-67.35700442	153.664
-67.33699045	33.2477
-67.31697649	64.5469
-67.29696252	80.8157
-67.27694855	103.936
-67.25693459	15.4686
-67.23692062	159.942
-67.21690665	79.8064
-67.19689269	84.3843
-67.17687872	62.3009
-67.15686475	20.4271
-67.13685079	52.5138
-67.11683682	81.0744
-67.09682285	208.332
-67.07680889	136.61
-67.05679492	146.789
-67.03678095	74.011
-67.01676699	48.4739
-66.99675302	24.2152
-66.97673906	71.8907
-66.95672509	73.3648
-66.93671112	127.736
-66.91669716	97.4747
-66.89668319	157.895
-66.87666922	39.7552
-66.85665526	122.844
-66.83664129	89.1341
-66.81662732	135.053
-66.79661336	136.236
-66.77659939	93.0113
-66.75658542	58.872
-66.73657146	4.58608
-66.71655749	56.8392
-66.69654352	100.082
-66.67652956	117.519
-66.65651559	40.8453
-66.63650162	63.9379
-66.61648766	82.9063
-66.59647369	106.282
-66.57645972	134.817
-66.55644576	43.4309
-66.53643179	45.4321
-66.51641782	119.188
-66.49640386	71.592
-66.47638989	87.7681
-66.45637592	89.7174
-66.43636196	34.8177
-66.41634799	94.9654
-66.39633403	152.487
-66.37632006	41.9969
-66.35630609	94.9821
-66.33629213	100.238
-66.31627816	106.662
-66.29626419	30.7856
-66.27625023	69.2945
-66.25623626	226.801
-66.23622229	53.4872
-66.21620833	13.8137
-66.19619436	44.0164
-66.17618039	94.1268
-66.15616643	104.948
-66.13615246	118.137
-66.11613849	78.9872
-66.09612453	77.9904
-66.07611056	74.5763
-66.05609659	49.0167
-66.03608263	60.9038
-66.01606866	71.1959
-65.99605469	69.1706
-65.97604073	92.2394
-65.95602676	68.3076
-65.93601279	56.2525
-65.91599883	23.611
-65.89598486	129.277
-65.87597089	184.279
-65.85595693	88.3576
-65.83594296	99.0092
-65.815929	78.2677
-65.79591503	107.496
-65.77590106	187.244
-65.7558871	78.8622
-65.73587313	88.1211
-65.71585916	128.828
-65.6958452	131.097
-65.67583123	75.6705
-65.65581726	62.7253
-65.6358033	81.1829
-65.61578933	73.1371
-65.59577536	31.007
-65.5757614	12.6629
-65.55574743	58.5456
-65.53573346	66.8169
-65.5157195	54.4574
-65.49570553	21.5741
-65.47569156	50.0244
-65.4556776	85.9203
-65.43566363	110.731
-65.41564966	66.4448
-65.3956357	76.8661
-65.37562173	125.184
-65.35560776	72.1548
-65.3355938	83.827
-65.31557983	28.955
-65.29556586	21.7211
-65.2755519	19.0034
-65.25553793	59.4575
-65.23552397	30.0584
-65.21551	91.7444
-65.19549603	138.565
-65.17548207	26.8419
-65.1554681	141.935
-65.13545413	93.4915
-65.11544017	28.9376
-65.0954262	49.9445
-65.07541223	70.13
-65.05539827	174.789
-65.0353843	106.858
-65.01537033	48.8848
-64.99535637	99.8813
-64.9753424	73.9482
-64.95532843	32.0975
-64.93531447	122.412
-64.9153005	70.9534
-64.89528653	95.359
-64.87527257	94.8278
-64.8552586	56.9408
-64.83524463	168.957
-64.81523067	81.1033
-64.7952167	116.293
-64.77520273	98.6637
-64.75518877	88.7524
-64.7351748	96.4025
-64.71516084	106.171
-64.69514687	121.782
-64.6751329	139.954
-64.65511894	110.682
-64.63510497	15.6285
-64.615091	236.401
-64.59507704	72.9819
-64.57506307	18.7611
-64.5550491	58.3058
-64.53503514	74.7847
-64.51502117	111.602
-64.4950072	105.111
-64.47499324	27.0277
-64.45497927	95.5476
-64.4349653	90.715
-64.41495134	94.4442
-64.39493737	91.3756
-64.3749234	48.9615
-64.35490944	30.866
-64.33489547	105.001
-64.3148815	141.243
-64.29486754	169.025
-64.27485357	61.0509
-64.2548396	6.92896
-64.23482564	101.237
-64.21481167	23.6297
-64.1947977	81.052
-64.17478374	56.851
-64.15476977	63.9996
-64.13475581	109.63
-64.11474184	139.236
-64.09472787	98.0237
-64.07471391	75.761
-64.05469994	43.9401
-64.03468597	40.9186
-64.01467201	89.0286
-63.99465804	132.015
-63.97464407	31.1999
-63.95463011	131.585
-63.93461614	70.9177
-63.91460217	113.613
-63.89458821	79.2511
-63.87457424	95.9883
-63.85456027	119.899
-63.83454631	63.5136
-63.81453234	39.6771
-63.79451837	65.0774
-63.77450441	130.309
-63.75449044	68.1225
-63.73447647	40.2521
-63.71446251	64.5845
-63.69444854	95.1985
-63.67443457	51.9116
-63.65442061	39.5802
-63.63440664	88.9814
-63.61439267	71.0776
-63.59437871	75.655
-63.57436474	83.5953
-63.55435078	99.8234
-63.53433681	58.2669
-63.51432284	38.1031
-63.49430888	149.517
-63.47429491	86.6884
-63.45428094	38.7491
-63.43426698	93.4521
-63.41425301	153.542
-63.39423904	54.3838
-63.37422508	60.8526
-63.35421111	58.5794
-63.33419714	20.0867
-63.31418318	27.279
-63.29416921	122.469
-63.27415524	213.361
-63.25414128	45.1661
-63.23412731	50.9859
-63.21411334	17.9163
-63.19409938	93.335
-63.17408541	21.5268
-63.15407144	38.9473
-63.13405748	86.0189
-63.11404351	133.112
-63.09402954	103.658
-63.07401558	142.311
-63.05400161	70.8004
-63.03398764	59.7433
-63.01397368	36.3435
-62.99395971	75.968
-62.97394575	121.808
-62.95393178	49.5461
-62.93391781	45.4565
-62.91390385	56.6479
-62.89388988	68.7256
-62.87387591	122.368
-62.85386195	151.646
-62.83384798	163.837
-62.81383401	46.8102
-62.79382005	79.5872
-62.77380608	40.8326
-62.75379211	62.9186
-62.73377815	85.4307
-62.71376418	180.775
-62.69375021	61.092
-62.67373625	105.952
-62.65372228	80.2305
-62.63370831	52.0383
-62.61369435	76.5141
-62.59368038	14.663
-62.57366641	18.5028
-62.55365245	77.3127
-62.53363848	76.9059
-62.51362451	143.809
-62.49361055	110.055
-62.47359658	28.2379
-62.45358262	72.352
-62.43356865	64.1228
-62.41355468	62.8282
-62.39354072	141.484
-62.37352675	61.3964
-62.35351278	69.8268
-62.33349882	73.4819
-62.31348485	97.8478
-62.29347088	41.8357
-62.27345692	63.9574
-62.25344295	39.5176
-62.23342898	123.013
-62.21341502	62.5685
-62.19340105	50.2324
-62.17338708	52.7394
-62.15337312	52.3875
-62.13335915	80.1296
-62.11334518	51.1715
-62.09333122	98.1031
-62.07331725	118.878
-62.05330328	90.7247
-62.03328932	102.353
-62.01327535	90.4289
-61.99326138	162.332
-61.97324742	201.574
-61.95323345	97.7794
-61.93321948	70.2153
-61.91320552	172.55
-61.89319155	115.794
-61.87317759	102.205
-61.85316362	127.036
-61.83314965	18.2528
-61.81313569	133.543
-61.79312172	138.322
-61.77310775	42.1514
-61.75309379	40.6562
-61.73307982	181.667
-61.71306585	125.41
-61.69305189	33.9256
-61.67303792	87.9775
-61.65302395	99.0331
-61.63300999	82.9661
-61.61299602	12.4611
-61.59298205	109.494
-61.57296809	211.998
-61.55295412	54.6905
-61.53294015	67.0116
-61.51292619	62.8234
-61.49291222	183.39
-61.47289825	42.2938
-61.45288429	109.155
-61.43287032	51.6731
-61.41285635	36.6606
-61.39284239	49.1036
-61.37282842	57.7327
-61.35281445	101.651
-61.33280049	183.966
-61.31278652	51.8955
-61.29277256	50.3736
-61.27275859	6.50575
-61.25274462	62.6016
-61.23273066	127.101
-61.21271669	51.7476
-61.19270272	32.8502
-61.17268876	58.684
-61.15267479	163.423
-61.13266082	7.93396
-61.11264686	119.609
-61.09263289	24.8509
-61.07261892	31.8387
-61.05260496	121.696
-61.03259099	106.088
-61.01257702	25.9658
-60.99256306	81.7153
-60.97254909	120.622
-60.95253512	70.8531
-60.93252116	108.487
-60.91250719	114.366
-60.89249322	171.496
-60.87247926	17.9743
-60.85246529	80.2462
-60.83245132	132.695
-60.81243736	19.9585
-60.79242339	127.048
-60.77240942	84.4675
-60.75239546	134.742
-60.73238149	55.3105
-60.71236753	54.372
-60.69235356	89.8283
-60.67233959	178.765
-60.65232563	36.6437
-60.63231166	92.3605
-60.61229769	132.661
-60.59228373	168.971
-60.57226976	61.6322
-60.55225579	78.8139
-60.53224183	23.9375
-60.51222786	114.852
-60.49221389	87.8208
-60.47219993	42.68
-60.45218596	87.062
-60.43217199	79.6889
-60.41215803	159.36
-60.39214406	128.486
-60.37213009	16.9092
-60.35211613	101.413
-60.33210216	95.1506
-60.31208819	116.674
-60.29207423	91.8672
-60.27206026	58.2081
-60.25204629	48.362
-60.23203233	57.0592
-60.21201836	127.305
-60.1920044	43.1807
-60.17199043	25.9049
-60.15197646	37.9878
-60.1319625	164.704
-60.11194853	135.218
-60.09193456	95.3997
-60.0719206	45.2623
-60.05190663	40.2871
-60.03189266	69.5957
-60.0118787	210.959
-59.99186473	112.748
-59.97185076	76.4134
-59.9518368	125.468
-59.93182283	3.78525
-59.91180886	156.347
-59.8917949	90.8117
-59.87178093	124.132
-59.85176696	95.9345
-59.831753	30.4975
-59.81173903	31.7552
-59.79172506	82.7987
-59.7717111	59.992
-59.75169713	45.941
-59.73168316	106.924
-59.7116692	58.939
-59.69165523	97.1767
-59.67164126	53.8001
-59.6516273	48.0895
-59.63161333	50.1903
-59.61159937	183.283
-59.5915854	75.536
-59.57157143	81.7234
-59.55155747	77.5172
-59.5315435	52.4441
-59.51152953	133.428
-59.49151557	43.0958
-59.4715016	98.5743
-59.45148763	49.1329
-59.43147367	130.566
-59.4114597	42.5377
-59.39144573	47.362
-59.37143177	45.3412
-59.3514178	109.383
-59.33140383	103.79
-59.31138987	124.188
-59.2913759	59.3533
-59.27136193	60.675
-59.25134797	22.3869
-59.231334	82.0424
-59.21132003	63.2828
-59.19130607	90.4438
-59.1712921	90.4329
-59.15127813	29.12
-59.13126417	40.3195
-59.1112502	95.5203
-59.09123623	42.1183
-59.07122227	92.3523
-59.0512083	116.733
-59.03119434	94.38
-59.01118037	183.849
-58.9911664	117.524
-58.97115244	118.373
-58.95113847	23.8959
-58.9311245	206.213
-58.91111054	76.6813
-58.89109657	70.7134
-58.8710826	67.9709
-58.85106864	25.8284
-58.83105467	18.0615
-58.8110407	204.482
-58.79102674	99.1061
-58.77101277	61.7572
-58.7509988	54.5013
-58.73098484	112.626
-58.71097087	180.493
-58.6909569	125.772
-58.67094294	116.28
-58.65092897	25.8485
-58.630915	34.104
-58.61090104	21.2846
-58.59088707	80.7238
-58.5708731	63.5147
-58.55085914	94.9801
-58.53084517	126.285
-58.5108312	122.985
-58.49081724	85.5923
-58.47080327	45.0941
-58.45078931	92.3957
-58.43077534	62.8055
-58.41076137	94.6816
-58.39074741	27.6685
-58.37073344	74.5669
-58.35071947	81.3208
-58.33070551	52.719
-58.31069154	128.954
-58.29067757	55.3517
-58.27066361	44.0122
-58.25064964	71.6513
-58.23063567	88.1929
-58.21062171	161.811
-58.19060774	120.215
-58.17059377	85.6985
-58.15057981	109.142
-58.13056584	57.9033
-58.11055187	120.456
-58.09053791	131.708
-58.07052394	149.663
-58.05050997	117.439
-58.03049601	39.1125
-58.01048204	100.366
-57.99046807	88.0999
-57.97045411	100.503
-57.95044014	43.5666
-57.93042618	56.5979
-57.91041221	101.481
-57.89039824	48.9718
-57.87038428	18.6803
-57.85037031	54.9675
-57.83035634	27.8936
-57.81034238	115.666
-57.79032841	113.841
-57.77031444	63.5737
-57.75030048	28.1925
-57.73028651	46.808
-57.71027254	57.0725
-57.69025858	80.5867
-57.67024461	54.3435
-57.65023064	21.8796
-57.63021668	92.5992
-57.61020271	73.4123
-57.59018874	139.508
-57.57017478	84.1103
-57.55016081	26.4643
-57.53014684	51.9329
-57.51013288	68.6534
-57.49011891	97.5254
-57.47010494	55.0064
-57.45009098	85.8277
-57.43007701	115.569
-57.41006304	133.462
-57.39004908	32.5525
-57.37003511	57.7878
-57.35002115	81.1259
-57.33000718	33.5012
-57.30999321	341.635
-57.28997925	75.8895
-57.26996528	111.099
-57.24995131	183.283
-57.22993735	82.6107
-57.20992338	96.3173
-57.18990941	90.1623
-57.16989545	147.189
-57.14988148	104.833
-57.12986751	12.1176
-57.10985355	66.593
-57.08983958	40.2735
-57.06982561	76.1868
-57.04981165	3.96425
-57.02979768	112.338
-57.00978371	48.7749
-56.98976975	187.363
-56.96975578	72.9895
-56.94974181	49.8926
-56.92972785	121.06
-56.90971388	108.298
-56.88969991	35.4269
-56.86968595	119.372
-56.84967198	96.4092
-56.82965801	101.304
-56.80964405	21.7139
-56.78963008	64.0852
-56.76961612	46.7044
-56.74960215	60.5746
-56.72958818	42.6111
-56.70957422	50.3254
-56.68956025	72.5574
-56.66954628	21.562
-56.64953232	22.948
-56.62951835	85.5164
-56.60950438	125.736
-56.58949042	50.9683
-56.56947645	42.0793
-56.54946248	82.7313
-56.52944852	70.2423
-56.50943455	138.653
-56.48942058	11.6864
-56.46940662	115.485
-56.44939265	69.5384
-56.42937868	79.1502
-56.40936472	34.0212
-56.38935075	47.2813
-56.36933678	87.5314
-56.34932282	66.7423
-56.32930885	93.7027
-56.30929488	62.3151
-56.28928092	69.3644
-56.26926695	64.9769
-56.24925298	113.56
-56.22923902	47.6005
-56.20922505	84.1305
-56.18921109	63.1485
-56.16919712	114.594
-56.14918315	27.5163
-56.12916919	91.4589
-56.10915522	100.178
-56.08914125	90.8493
-56.06912729	70.6483
-56.04911332	42.0378
-56.02909935	66.1927
-56.00908539	110.343
-55.98907142	15.3461
-55.96905745	52.478
-55.94904349	164.286
-55.92902952	75.5065
-55.90901555	62.9545
-55.88900159	71.6523
-55.86898762	120.447
-55.84897365	135.291
-55.82895969	134.629
-55.80894572	53.0643
-55.78893175	40.4213
-55.76891779	124.57
-55.74890382	124.84
-55.72888985	50.2628
-55.70887589	88.6049
-55.68886192	104.267
-55.66884796	82.3786
-55.64883399	40.8546
-55.62882002	47.4447
-55.60880606	23.4468
-55.58879209	33.1514
-55.56877812	166.042
-55.54876416	10.5608
-55.52875019	71.7233
-55.50873622	47.6817
-55.48872226	143.305
-55.46870829	78.7313
-55.44869432	68.2103
-55.42868036	61.2876
-55.40866639	85.839
-55.38865242	82.6896
-55.36863846	121.649
-55.34862449	63.5481
-55.32861052	158.231
-55.30859656	110.74
-55.28858259	68.2726
-55.26856862	47.5549
-55.24855466	113.332
-55.22854069	56.4294
-55.20852672	43.1628
-55.18851276	116.729
-55.16849879	34.0321
-55.14848482	83.8213
-55.12847086	23.9916
-55.10845689	39.1617
-55.08844293	113.331
-55.06842896	65.4265
-55.04841499	71.204
-55.02840103	116.535
-55.00838706	58.7452
-54.98837309	43.8864
-54.96835913	51.9608
-54.94834516	24.3938
-54.92833119	88.3523
-54.90831723	20.9827
-54.88830326	40.5805
-54.86828929	44.2815
-54.84827533	109.004
-54.82826136	34.0145
-54.80824739	25.7739
-54.78823343	135.604
-54.76821946	57.4821
-54.74820549	78.3723
-54.72819153	85.3115
-54.70817756	124.326
-54.68816359	18.6502
-54.66814963	19.5478
-54.64813566	82.4588
-54.62812169	11.6402
-54.60810773	164.435
-54.58809376	126.187
-54.56807979	22.7764
-54.54806583	123.867
-54.52805186	57.7027
-54.5080379	117.577
-54.48802393	46.5847
-54.46800996	95.9765
-54.447996	199.488
-54.42798203	71.0336
-54.40796806	73.6702
-54.3879541	13.4375
-54.36794013	99.8613
-54.34792616	68.835
-54.3279122	27.8031
-54.30789823	136.384
-54.28788426	76.7868
-54.2678703	88.3711
-54.24785633	159.145
-54.22784236	36.9478
-54.2078284	104.076
-54.18781443	98.5056
-54.16780046	145.571
-54.1477865	34.0527
-54.12777253	106.31
-54.10775856	60.8778
-54.0877446	123.419
-54.06773063	69.806
-54.04771666	35.3872
-54.0277027	53.0924
-54.00768873	71.6311
-53.98767476	37.9372
-53.9676608	60.6699
-53.94764683	98.6107
-53.92763287	142.374
-53.9076189	104.276
-53.88760493	80.5103
-53.86759097	62.6038
-53.847577	106.523
-53.82756303	50.6443
-53.80754907	133.372
-53.7875351	122.887
-53.76752113	52.5347
-53.74750717	32.868
-53.7274932	52.8909
-53.70747923	77.7343
-53.68746527	48.0583
-53.6674513	142.618
-53.64743733	112.606
-53.62742337	69.9339
-53.6074094	131.083
-53.58739543	46.6121
-53.56738147	154.812
-53.5473675	72.3475
-53.52735353	105.818
-53.50733957	146.058
-53.4873256	169.367
-53.46731163	23.2892
-53.44729767	38.7722
-53.4272837	102.69
-53.40726974	9.21469
-53.38725577	105.098
-53.3672418	41.4061
-53.34722784	94.2589
-53.32721387	27.2456
-53.3071999	97.4988
-53.28718594	113.626
-53.26717197	48.649
-53.247158	46.1174
-53.22714404	54.857
-53.20713007	120.401
-53.1871161	137.993
-53.16710214	86.6414
-53.14708817	93.1843
-53.1270742	56.3142
-53.10706024	169.94
-53.08704627	77.4088
-53.0670323	145.614
-53.04701834	47.1279
-53.02700437	28.2116
-53.0069904	44.7877
-52.98697644	131.977
-52.96696247	220.246
-52.9469485	29.5158
-52.92693454	78.6617
-52.90692057	71.1977
-52.8869066	68.2113
-52.86689264	197.685
-52.84687867	45.0537
-52.82686471	139.192
-52.80685074	37.8333
-52.78683677	117.711
-52.76682281	46.0013
-52.74680884	99.8579
-52.72679487	45.8719
-52.70678091	102.591
-52.68676694	8.66063
-52.66675297	103.487
-52.64673901	114.28
-52.62672504	102.686
-52.60671107	126.218
-52.58669711	12.4038
-52.56668314	44.2263
-52.54666917	125.689
-52.52665521	122.247
-52.50664124	198.951
-52.48662727	38.4907
-52.46661331	35.3938
-52.44659934	98.9695
-52.42658537	36.8865
-52.40657141	100.611
-52.38655744	106.742
-52.36654347	40.4035
-52.34652951	172.911
-52.32651554	18.9923
-52.30650157	161.251
-52.28648761	60.5381
-52.26647364	79.2353
-52.24645968	104.645
-52.22644571	40.4438
-52.20643174	63.9342
-52.18641778	155.956
-52.16640381	25.0849
-52.14638984	73.5544
-52.12637588	46.7922
-52.10636191	67.2768
-52.08634794	166.428
-52.06633398	128.464
-52.04632001	25.507
-52.02630604	146.533
-52.00629208	67.3227
-51.98627811	65.5488
-51.96626414	107.377
-51.94625018	76.4388
-51.92623621	25.6295
-51.90622224	156.119
-51.88620828	80.5562
-51.86619431	48.2349
-51.84618034	89.1305
-51.82616638	120.043
-51.80615241	98.9069
-51.78613844	50.7048
-51.76612448	101.047
-51.74611051	77.3968
-51.72609654	117.548
-51.70608258	50.4047
-51.68606861	47.3863
-51.66605465	88.3856
-51.64604068	179.488
-51.62602671	112.816
-51.60601275	56.9784
-51.58599878	54.4136
-51.56598481	48.0206
-51.54597085	85.742
-51.52595688	16.6513
-51.50594291	103.629
-51.48592895	83.1645
-51.46591498	61.5767
-51.44590101	75.2231
-51.42588705	56.3229
-51.40587308	77.0512
-51.38585911	157.053
-51.36584515	126.103
-51.34583118	27.48
-51.32581721	85.3559
-51.30580325	58.7449
-51.28578928	38.5644
-51.26577531	146.926
-51.24576135	32.6414
-51.22574738	70.6184
-51.20573341	67.1033
-51.18571945	16.1933
-51.16570548	103.739
-51.14569152	49.121
-51.12567755	64.4199
-51.10566358	183.391
-51.08564962	80.0991
-51.06563565	42.6063
-51.04562168	22.372
-51.02560772	93.7903
-51.00559375	53.9957
-50.98557978	132.917
-50.96556582	118.813
-50.94555185	172.228
-50.92553788	152.192
-50.90552392	16.958
-50.88550995	90.9425
-50.86549598	20.0258
-50.84548202	77.8667
-50.82546805	90.7689
-50.80545408	84.9315
-50.78544012	104.893
-50.76542615	99.7582
-50.74541218	59.4741
-50.72539822	140.01
-50.70538425	73.0079
-50.68537028	80.5594
-50.66535632	55.313
-50.64534235	140.504
-50.62532838	39.2132
-50.60531442	115.206
-50.58530045	13.1845
-50.56528649	13.8766
-50.54527252	91.1316
-50.52525855	31.7974
-50.50524459	48.0484
-50.48523062	86.1293
-50.46521665	88.0002
-50.44520269	90.4762
-50.42518872	128.734
-50.40517475	50.8361
-50.38516079	19.6713
-50.36514682	60.3809
-50.34513285	85.9503
-50.32511889	117.067
-50.30510492	80.4832
-50.28509095	51.4177
-50.26507699	85.6656
-50.24506302	133.417
-50.22504905	22.3147
-50.20503509	49.2527
-50.18502112	89.3243
-50.16500715	71.8878
-50.14499319	76.8014
-50.12497922	155.047
-50.10496525	215.671
-50.08495129	88.3282
-50.06493732	43.1576
-50.04492335	82.7425
-50.02490939	111.876
-50.00489542	122.25
-49.98488146	191.221
-49.96486749	23.3211
-49.94485352	31.1808
-49.92483956	35.2198
-49.90482559	34.9652
-49.88481162	65.812
-49.86479766	143.513
-49.84478369	54.7384
-49.82476972	76.618
-49.80475576	46.7675
-49.78474179	100.532
-49.76472782	18.1251
-49.74471386	22.8832
-49.72469989	134.073
-49.70468592	134.238
-49.68467196	111.901
-49.66465799	135.636
-49.64464402	93.8143
-49.62463006	59.5431
-49.60461609	114.191
-49.58460212	88.0401
-49.56458816	72.5249
-49.54457419	72.3357
-49.52456022	11.8207
-49.50454626	112.658
-49.48453229	152.226
-49.46451832	64.5776
-49.44450436	100.891
-49.42449039	112.947
-49.40447643	86.5431
-49.38446246	76.8215
-49.36444849	34.891
-49.34443453	66.9748
-49.32442056	76.2777
-49.30440659	49.96
-49.28439263	48.3702
-49.26437866	99.5207
-49.24436469	31.8635
-49.22435073	96.1671
-49.20433676	81.0764
-49.18432279	154.207
-49.16430883	79.5786
-49.14429486	52.4284
-49.12428089	183.378
-49.10426693	75.5235
-49.08425296	104.23
-49.06423899	113.349
-49.04422503	52.9996
-49.02421106	134.206
-49.00419709	147.324
-48.98418313	128.584
-48.96416916	106.411
-48.94415519	48.3715
-48.92414123	86.7592
-48.90412726	55.1495
-48.8841133	165.865
-48.86409933	13.0857
-48.84408536	173.787
-48.8240714	91.9403
-48.80405743	86.3578
-48.78404346	169.659
-48.7640295	134.027
-48.74401553	125.582
-48.72400156	64.6802
-48.7039876	77.5831
-48.68397363	145.575
-48.66395966	140.518
-48.6439457	57.0057
-48.62393173	76.5595
-48.60391776	144.382
-48.5839038	109.043
-48.56388983	118.887
-48.54387586	95.9401
-48.5238619	72.5379
-48.50384793	128.237
-48.48383396	132.995
-48.46382	117.981
-48.44380603	113.081
-48.42379206	196.26
-48.4037781	94.3642
-48.38376413	58.435
-48.36375016	41.3345
-48.3437362	81.9437
-48.32372223	81.1093
-48.30370827	107.566
-48.2836943	97.8435
-48.26368033	52.4408
-48.24366637	77.9045
-48.2236524	7.45234
-48.20363843	82.3879
-48.18362447	65.7598
-48.1636105	77.762
-48.14359653	121.626
-48.12358257	41.1153
-48.1035686	148.666
-48.08355463	73.2582
-48.06354067	40.8903
-48.0435267	30.3043
-48.02351273	100.086
-48.00349877	116.066
-47.9834848	51.0241
-47.96347083	25.442
-47.94345687	78.9531
-47.9234429	86.2452
-47.90342893	191.197
-47.88341497	74.3585
-47.863401	108.268
-47.84338703	136.806
-47.82337307	107.395
-47.8033591	63.9537
-47.78334513	98.9429
-47.76333117	103.58
-47.7433172	29.7918
-47.72330324	46.9868
-47.70328927	91.6756
-47.6832753	69.9572
-47.66326134	66.4814
-47.64324737	28.8315
-47.6232334	80.1304
-47.60321944	100.781
-47.58320547	76.4835
-47.5631915	79.0146
-47.54317754	49.8434
-47.52316357	159.965
-47.5031496	68.5631
-47.48313564	98.6483
-47.46312167	52.2402
-47.4431077	68.0565
-47.42309374	74.6723
-47.40307977	120.457
-47.3830658	172.721
-47.36305184	91.3339
-47.34303787	11.5514
-47.3230239	37.0082
-47.30300994	42.1007
-47.28299597	78.8924
-47.262982	59.2382
-47.24296804	175.362
-47.22295407	97.9329
-47.2029401	101.183
-47.18292614	154.816
-47.16291217	41.5175
-47.14289821	120.859
-47.12288424	142.564
-47.10287027	49.6183
-47.08285631	131.184
-47.06284234	44.1406
-47.04282837	130.311
-47.02281441	68.0457
-47.00280044	149.293
-46.98278647	37.4786
-46.96277251	128.091
-46.94275854	71.4849
-46.92274457	81.7722
-46.90273061	60.9259
-46.88271664	36.0841
-46.86270267	99.6994
-46.84268871	111.845
-46.82267474	192.13
-46.80266077	83.4019
-46.78264681	81.0532
-46.76263284	90.7968
-46.74261887	93.5261
-46.72260491	94.3916
-46.70259094	44.8082
-46.68257697	21.4747
-46.66256301	87.3362
-46.64254904	119.427
-46.62253508	71.552
-46.60252111	180.977
-46.58250714	39.3055
-46.56249318	28.6138
-46.54247921	35.6987
-46.52246524	33.7989
-46.50245128	50.7686
-46.48243731	100.628
-46.46242334	99.2124
-46.44240938	44.2934
-46.42239541	126.721
-46.40238144	38.0783
-46.38236748	48.7744
-46.36235351	107.673
-46.34233954	40.3298
-46.32232558	47.5789
-46.30231161	22.8731
-46.28229764	103.223
-46.26228368	86.6253
-46.24226971	57.1482
-46.22225574	131.309
-46.20224178	70.3458
-46.18222781	40.2587
-46.16221384	186.818
-46.14219988	145.78
-46.12218591	40.4944
-46.10217194	96.9906
-46.08215798	66.7057
-46.06214401	100.226
-46.04213005	117.477
-46.02211608	143.158
-46.00210211	51.2468
-45.98208815	47.5872
-45.96207418	134.316
-45.94206021	82.9309
-45.92204625	87.0377
-45.90203228	158.381
-45.88201831	61.1879
-45.86200435	112.327
-45.84199038	142.885
-45.82197641	138.534
-45.80196245	87.6218
-45.78194848	115.498
-45.76193451	43.8679
-45.74192055	28.0549
-45.72190658	98.1748
-45.70189261	203.738
-45.68187865	79.2844
-45.66186468	125.202
-45.64185071	63.6845
-45.62183675	62.633
-45.60182278	88.2968
-45.58180881	81.0197
-45.56179485	99.9806
-45.54178088	46.7657
-45.52176691	86.8848
-45.50175295	37.3356
-45.48173898	143.695
-45.46172502	25.567
-45.44171105	112.572
-45.42169708	224.494
-45.40168312	97.1255
-45.38166915	44.7019
-45.36165518	115.587
-45.34164122	44.4663
-45.32162725	118.337
-45.30161328	137.498
-45.28159932	63.2356
-45.26158535	76.5619
-45.24157138	20.5451
-45.22155742	60.0973
-45.20154345	92.9599
-45.18152948	136.538
-45.16151552	95.5027
-45.14150155	178.245
-45.12148758	259.011
-45.10147362	83.4738
-45.08145965	89.279
-45.06144568	41.2155
-45.04143172	59.3108
-45.02141775	110.839
-45.00140378	84.0356
-44.98138982	72.6733
-44.96137585	90.3117
-44.94136188	97.3434
-44.92134792	106.247
-44.90133395	30.0863
-44.88131999	179.263
-44.86130602	75.0305
-44.84129205	155.901
-44.82127809	158.296
-44.80126412	68.0442
-44.78125015	44.3027
-44.76123619	79.8577
-44.74122222	83.4397
-44.72120825	91.0527
-44.70119429	196.801
-44.68118032	140.744
-44.66116635	70.5783
-44.64115239	67.4567
-44.62113842	103.406
-44.60112445	28.6097
-44.58111049	40.2346
-44.56109652	115.282
-44.54108255	86.6197
-44.52106859	75.6274
-44.50105462	61.1363
-44.48104065	35.8068
-44.46102669	71.8295
-44.44101272	67.3755
-44.42099875	119.396
-44.40098479	66.8525
-44.38097082	105.052
-44.36095686	90.8562
-44.34094289	93.6388
-44.32092892	56.5353
-44.30091496	143.098
-44.28090099	67.3085
-44.26088702	135.61
-44.24087306	58.4293
-44.22085909	87.5363
-44.20084512	20.1925
-44.18083116	62.9905
-44.16081719	77.4477
-44.14080322	86.9902
-44.12078926	64.4803
-44.10077529	93.9294
-44.08076132	71.5105
-44.06074736	69.3303
-44.04073339	150.77
-44.02071942	20.8678
-44.00070546	102.989
-43.98069149	48.8963
-43.96067752	135.334
-43.94066356	70.5279
-43.92064959	53.7188
-43.90063562	79.4354
-43.88062166	41.4386
-43.86060769	59.3922
-43.84059372	21.4542
-43.82057976	159.265
-43.80056579	21.7348
-43.78055183	69.7844
-43.76053786	75.9106
-43.74052389	18.8147
-43.72050993	13.1428
-43.70049596	10.3156
-43.68048199	139.882
-43.66046803	42.3209
-43.64045406	60.6624
-43.62044009	68.7734
-43.60042613	92.6735
-43.58041216	29.5379
-43.56039819	68.6268
-43.54038423	107.555
-43.52037026	39.7088
-43.50035629	106.073
-43.48034233	54.1576
-43.46032836	108.796
-43.44031439	167.226
-43.42030043	94.2727
-43.40028646	109.197
-43.38027249	80.4416
-43.36025853	58.3599
-43.34024456	40.5509
-43.32023059	43.2947
-43.30021663	77.0961
-43.28020266	31.562
-43.26018869	61.1261
-43.24017473	14.693
-43.22016076	45.1858
-43.2001468	92.9097
-43.18013283	47.7756
-43.16011886	35.5038
-43.1401049	79.3083
-43.12009093	79.8521
-43.10007696	110.024
-43.080063	180.842
-43.06004903	72.3401
-43.04003506	90.3512
-43.0200211	25.8228
-43.00000713	141.14
-42.97999316	115.331
-42.9599792	53.839
-42.93996523	131.776
-42.91995126	18.4307
-42.8999373	187.34
-42.87992333	71.2933
-42.85990936	58.2701
-42.8398954	103.953
-42.81988143	104.481
-42.79986746	70.217
-42.7798535	60.5097
-42.75983953	202.066
-42.73982556	4.70412
-42.7198116	165.004
-42.69979763	150.522
-42.67978366	59.5183
-42.6597697	71.2356
-42.63975573	26.7956
-42.61974177	71.8575
-42.5997278	64.8552
-42.57971383	56.6452
-42.55969987	55.4755
-42.5396859	117.53
-42.51967193	87.1129
-42.49965797	97.1075
-42.479644	109.238
-42.45963003	126.663
-42.43961607	70.9365
-42.4196021	28.9204
-42.39958813	137.871
-42.37957417	50.2784
-42.3595602	118.234
-42.33954623	80.7687
-42.31953227	154.357
-42.2995183	133.781
-42.27950433	84.4736
-42.25949037	83.685
-42.2394764	193.74
-42.21946243	22.3617
-42.19944847	90.5702
-42.1794345	41.9213
-42.15942053	178.294
-42.13940657	37.2505
-42.1193926	119.718
-42.09937864	113.25
-42.07936467	62.8191
-42.0593507	38.6944
-42.03933674	69.7197
-42.01932277	77.8369
-41.9993088	62.0689
-41.97929484	32.1751
-41.95928087	68.7451
-41.9392669	137.451
-41.91925294	82.45
-41.89923897	91.0355
-41.879225	117.259
-41.85921104	118.463
-41.83919707	168.809
-41.8191831	21.8407
-41.79916914	103.638
-41.77915517	175.13
-41.7591412	93.6085
-41.73912724	66.5737
-41.71911327	129.783
-41.6990993	123.757
-41.67908534	58.4427
-41.65907137	201.621
-41.6390574	80.2413
-41.61904344	74.459
-41.59902947	44.5301
-41.5790155	71.9919
-41.55900154	82.048
-41.53898757	29.0487
-41.51897361	149.588
-41.49895964	63.5449
-41.47894567	63.8348
-41.45893171	48.3691
-41.43891774	38.6019
-41.41890377	162.887
-41.39888981	103.453
-41.37887584	150.313
-41.35886187	154.332
-41.33884791	139.337
-41.31883394	50.2388
-41.29881997	64.4288
-41.27880601	116.951
-41.25879204	64.5108
-41.23877807	106.343
-41.21876411	46.6045
-41.19875014	107.58
-41.17873617	76.5806
-41.15872221	100.34
-41.13870824	84.6735
-41.11869427	55.5698
-41.09868031	76.9443
-41.07866634	121.331
-41.05865237	112.308
-41.03863841	19.1227
-41.01862444	56.4485
-40.99861047	63.6769
-40.97859651	92.685
-40.95858254	155.125
-40.93856858	114.012
-40.91855461	56.0945
-40.89854064	191.04
-40.87852668	43.1638
-40.85851271	89.7103
-40.83849874	72.4815
-40.81848478	83.3906
-40.79847081	111.46
-40.77845684	68.0857
-40.75844288	96.8048
-40.73842891	166.189
-40.71841494	131.219
-40.69840098	114.174
-40.67838701	65.2357
-40.65837304	14.0817
-40.63835908	121.847
-40.61834511	118.353
-40.59833114	95.5742
-40.57831718	33.1843
-40.55830321	63.4996
-40.53828924	63.7024
-40.51827528	26.4745
-40.49826131	121.688
-40.47824734	102.202
-40.45823338	81.159
-40.43821941	41.5234
-40.41820545	62.1275
-40.39819148	41.9416
-40.37817751	94.5436
-40.35816355	62.514
-40.33814958	131.836
-40.31813561	173.021
-40.29812165	101.692
-40.27810768	72.7557
-40.25809371	151.423
-40.23807975	97.6768
-40.21806578	43.4723
-40.19805181	100.568
-40.17803785	60.2732
-40.15802388	11.8579
-40.13800991	128.342
-40.11799595	156.341
-40.09798198	99.8808
-40.07796801	23.7326
-40.05795405	72.2182
-40.03794008	121.961
-40.01792611	168.794
-39.99791215	33.9768
-39.97789818	7.16742
-39.95788421	40.3678
-39.93787025	74.0728
-39.91785628	79.5395
-39.89784231	52.6389
-39.87782835	52.6524
-39.85781438	27.6586
-39.83780042	60.724
-39.81778645	72.87
-39.79777248	54.8037
-39.77775852	45.4812
-39.75774455	112.488
-39.73773058	61.9543
-39.71771662	80.1545
-39.69770265	97.1415
-39.67768868	72.88
-39.65767472	102.337
-39.63766075	84.0839
-39.61764678	152.895
-39.59763282	93.7139
-39.57761885	70.9983
-39.55760488	192.182
-39.53759092	8.8114
-39.51757695	85.4937
-39.49756298	124.11
-39.47754902	71.6995
-39.45753505	51.2468
-39.43752108	45.9819
-39.41750712	43.2342
-39.39749315	56.3725
-39.37747918	90.9092
-39.35746522	63.0369
-39.33745125	34.2083
-39.31743728	46.0997
-39.29742332	68.4426
-39.27740935	84.211
-39.25739539	40.8798
-39.23738142	108.482
-39.21736745	91.0213
-39.19735349	89.1366
-39.17733952	112.405
-39.15732555	32.4333
-39.13731159	43.0166
-39.11729762	102.598
-39.09728365	41.9966
-39.07726969	135.958
-39.05725572	76.495
-39.03724175	81.7508
-39.01722779	17.7359
-38.99721382	78.9454
-38.97719985	27.1464
-38.95718589	71.0593
-38.93717192	135.56
-38.91715795	77.1492
-38.89714399	54.3975
-38.87713002	123.343
-38.85711605	48.7414
-38.83710209	23.9822
-38.81708812	110.919
-38.79707415	23.4796
-38.77706019	41.0726
-38.75704622	38.514
-38.73703225	151.529
-38.71701829	28.5839
-38.69700432	90.6713
-38.67699036	119.948
-38.65697639	120.639
-38.63696242	30.1289
-38.61694846	53.9672
-38.59693449	53.0341
-38.57692052	142.259
-38.55690656	112.621
-38.53689259	38.1012
-38.51687862	86.5038
-38.49686466	51.2084
-38.47685069	115.106
-38.45683672	105.675
-38.43682276	103.138
-38.41680879	202.343
-38.39679482	40.9264
-38.37678086	61.9391
-38.35676689	55.3936
-38.33675292	209.114
-38.31673896	5.34322
-38.29672499	43.6737
-38.27671102	62.7956
-38.25669706	63.7629
-38.23668309	12.7641
-38.21666912	153.451
-38.19665516	105.975
-38.17664119	120.651
-38.15662723	118.612
-38.13661326	58.8342
-38.11659929	157.078
-38.09658533	115.114
-38.07657136	63.8889
-38.05655739	40.6911
-38.03654343	19.5779
-38.01652946	134.739
-37.99651549	43.3906
-37.97650153	53.9137
-37.95648756	136.639
-37.93647359	75.7119
-37.91645963	68.1366
-37.89644566	42.0823
-37.87643169	88.1211
-37.85641773	42.5667
-37.83640376	3.32318
-37.81638979	84.2162
-37.79637583	152.606
-37.77636186	129.436
-37.75634789	174.344
-37.73633393	18.985
-37.71631996	221.776
-37.69630599	8.43869
-37.67629203	82.7775
-37.65627806	76.8736
-37.63626409	61.8779
-37.61625013	47.017
-37.59623616	26.2573
-37.5762222	141.034
-37.55620823	64.2314
-37.53619426	24.8543
-37.5161803	119.961
-37.49616633	42.7289
-37.47615236	75.6935
-37.4561384	14.6403
-37.43612443	116.133
-37.41611046	59.3
-37.3960965	59.4354
-37.37608253	97.3678
-37.35606856	95.5909
-37.3360546	54.8617
-37.31604063	52.0974
-37.29602666	62.5827
-37.2760127	117.287
-37.25599873	49.0153
-37.23598476	131.556
-37.2159708	125.226
-37.19595683	109.75
-37.17594286	119.053
-37.1559289	63.5945
-37.13591493	49.661
-37.11590096	68.6456
-37.095887	15.7
-37.07587303	102.057
-37.05585906	15.8251
-37.0358451	114.788
-37.01583113	49.7466
-36.99581717	85.7415
-36.9758032	14.8821
-36.95578923	53.7282
-36.93577527	104.179
-36.9157613	76.6168
-36.89574733	179.615
-36.87573337	69.2427
-36.8557194	32.661
-36.83570543	93.7605
-36.81569147	129.052
-36.7956775	107.279
-36.77566353	100.22
-36.75564957	37.3573
-36.7356356	149.813
-36.71562163	49.8201
-36.69560767	11.7751
-36.6755937	60.0548
-36.65557973	155.796
-36.63556577	41.6571
-36.6155518	67.5981
-36.59553783	19.9603
-36.57552387	102.32
-36.5555099	96.9091
-36.53549593	52.2905
-36.51548197	62.1587
-36.495468	66.4165
-36.47545403	16.4144
-36.45544007	120.906
-36.4354261	75.2647
-36.41541214	48.5184
-36.39539817	81.3928
-36.3753842	43.7684
-36.35537024	95.5842
-36.33535627	8.39747
-36.3153423	74.4002
-36.29532834	95.9667
-36.27531437	75.4003
-36.2553004	171.046
-36.23528644	52.3897
-36.21527247	50.3708
-36.1952585	96.5915
-36.17524454	35.6362
-36.15523057	99.9156
-36.1352166	22.1393
-36.11520264	85.5175
-36.09518867	95.523
-36.0751747	99.3399
-36.05516074	71.9244
-36.03514677	129.915
-36.0151328	69.6939
-35.99511884	86.2507
-35.97510487	107.691
-35.9550909	57.2628
-35.93507694	70.2955
-35.91506297	130.534
-35.89504901	71.9978
-35.87503504	128.384
-35.85502107	58.3972
-35.83500711	155.69
-35.81499314	56.3503
-35.79497917	65.3925
-35.77496521	80.563
-35.75495124	58.6905
-35.73493727	31.9157
-35.71492331	75.1161
-35.69490934	162.075
-35.67489537	54.4904
-35.65488141	177.153
-35.63486744	54.872
-35.61485347	54.0757
-35.59483951	53.6328
-35.57482554	97.0605
-35.55481157	23.764
-35.53479761	75.4925
-35.51478364	34.9357
-35.49476967	36.586
-35.47475571	46.8217
-35.45474174	28.1231
-35.43472777	87.0555
-35.41471381	47.6628
-35.39469984	92.7769
-35.37468587	120.73
-35.35467191	119.12
-35.33465794	32.2182
-35.31464398	106.051
-35.29463001	64.7928
-35.27461604	121.8
-35.25460208	119.021
-35.23458811	112.369
-35.21457414	119.782
-35.19456018	36.5475
-35.17454621	106.58
-35.15453224	144.266
-35.13451828	54.4182
-35.11450431	60.9464
-35.09449034	39.4692
-35.07447638	89.1021
-35.05446241	61.0737
-35.03444844	88.1558
-35.01443448	61.0678
-34.99442051	95.4829
-34.97440654	149.674
-34.95439258	206.515
-34.93437861	50.1261
-34.91436464	86.9338
-34.89435068	43.5537
-34.87433671	111.126
-34.85432274	65.578
-34.83430878	80.4126
-34.81429481	82.5803
-34.79428084	68.2631
-34.77426688	92.0162
-34.75425291	85.7482
-34.73423895	30.188
-34.71422498	90.967
-34.69421101	46.395
-34.67419705	86.2052
-34.65418308	135.187
-34.63416911	60.951
-34.61415515	63.2727
-34.59414118	38.265
-34.57412721	97.0228
-34.55411325	117.406
-34.53409928	59.115
-34.51408531	57.6206
-34.49407135	66.9815
-34.47405738	44.0256
-34.45404341	120.446
-34.43402945	135.025
-34.41401548	28.0853
-34.39400151	81.6596
-34.37398755	126.455
-34.35397358	95.3846
-34.33395961	184.452
-34.31394565	63.0031
-34.29393168	110.81
-34.27391771	103.938
-34.25390375	7.83272
-34.23388978	58.635
-34.21387581	51.4723
-34.19386185	70.3726
-34.17384788	104.529
-34.15383392	98.0761
-34.13381995	64.5486
-34.11380598	105.799
-34.09379202	87.051
-34.07377805	59.0014
-34.05376408	154.806
-34.03375012	130.583
-34.01373615	169.444
-33.99372218	65.1442
-33.97370822	131.797
-33.95369425	88.8802
-33.93368028	97.4265
-33.91366632	9.38204
-33.89365235	194.416
-33.87363838	126.033
-33.85362442	145.006
-33.83361045	93.5219
-33.81359648	49.4726
-33.79358252	60.0459
-33.77356855	66.9622
-33.75355458	72.9529
-33.73354062	116.523
-33.71352665	125.961
-33.69351268	60.8104
-33.67349872	60.5717
-33.65348475	185.105
-33.63347079	71.2216
-33.61345682	91.1031
-33.59344285	83.3815
-33.57342889	42.632
-33.55341492	86.4762
-33.53340095	15.273
-33.51338699	111.253
-33.49337302	50.2493
-33.47335905	39.6982
-33.45334509	84.7319
-33.43333112	49.4807
-33.41331715	88.9454
-33.39330319	111.858
-33.37328922	32.4331
-33.35327525	106.214
-33.33326129	50.9026
-33.31324732	75.7452
-33.29323335	105.464
-33.27321939	101.908
-33.25320542	86.8684
-33.23319145	46.3506
-33.21317749	70.9902
-33.19316352	17.0295
-33.17314955	104.736
-33.15313559	37.2008
-33.13312162	171.782
-33.11310765	68.526
-33.09309369	21.376
-33.07307972	68.8517
-33.05306576	164.806
-33.03305179	81.7211
-33.01303782	22.9199
-32.99302386	102.188
-32.97300989	118.527
-32.95299592	32.381
-32.93298196	121.864
-32.91296799	51.0232
-32.89295402	148.802
-32.87294006	20.8235
-32.85292609	97.0523
-32.83291212	173.628
-32.81289816	51.2059
-32.79288419	9.54361
-32.77287022	42.2949
-32.75285626	55.4611
-32.73284229	40.3756
-32.71282832	26.2034
-32.69281436	64.8441
-32.67280039	114.777
-32.65278642	164.927
-32.63277246	71.7706
-32.61275849	62.4123
-32.59274452	149.882
-32.57273056	52.3949
-32.55271659	320.513
-32.53270262	49.2517
-32.51268866	52.6401
-32.49267469	93.6768
-32.47266073	72.3551
-32.45264676	80.5097
-32.43263279	94.0116
-32.41261883	50.0012
-32.39260486	42.7579
-32.37259089	47.4847
-32.35257693	172.807
-32.33256296	26.9324
-32.31254899	59.9898
-32.29253503	17.6713
-32.27252106	44.4687
-32.25250709	60.2088
-32.23249313	10.1948
-32.21247916	147.044
-32.19246519	101.56
-32.17245123	43.731
-32.15243726	47.3237
-32.13242329	46.1274
-32.11240933	40.8503
-32.09239536	113.713
-32.07238139	54.6875
-32.05236743	125.723
-32.03235346	61.5338
-32.01233949	40.942
-31.99232553	74.4565
-31.97231156	105.64
-31.95229759	169.68
-31.93228363	34.093
-31.91226966	92.6293
-31.8922557	86.766
-31.87224173	124.306
-31.85222776	76.9369
-31.8322138	72.4659
-31.81219983	102.06
-31.79218586	109.779
-31.7721719	102.416
-31.75215793	178.304
-31.73214396	110.402
-31.71213	87.9484
-31.69211603	121.004
-31.67210206	46.4508
-31.6520881	20.3408
-31.63207413	83.6453
-31.61206016	83.7659
-31.5920462	78.2172
-31.57203223	16.3217
-31.55201826	69.9442
-31.5320043	111.587
-31.51199033	47.8765
-31.49197636	81.2956
-31.4719624	76.7452
-31.45194843	48.6262
-31.43193446	157.952
-31.4119205	142.233
-31.39190653	24.2776
-31.37189257	15.2021
-31.3518786	43.2104
-31.33186463	202.245
-31.31185067	58.0757
-31.2918367	72.3427
-31.27182273	113.468
-31.25180877	156.567
-31.2317948	57.1004
-31.21178083	95.1731
-31.19176687	93.8023
-31.1717529	135.865
-31.15173893	265.953
-31.13172497	130.37
-31.111711	26.2291
-31.09169703	87.4781
-31.07168307	29.7931
-31.0516691	77.4685
-31.03165513	5.63164
-31.01164117	101.512
-30.9916272	110.075
-30.97161323	100.918
-30.95159927	92.5189
-30.9315853	56.1689
-30.91157133	56.2728
-30.89155737	79.4125
-30.8715434	55.0414
-30.85152943	108.072
-30.83151547	16.2121
-30.8115015	42.0288
-30.79148754	80.4443
-30.77147357	58.672
-30.7514596	60.6928
-30.73144564	63.4849
-30.71143167	93.4223
-30.6914177	54.2264
-30.67140374	133.189
-30.65138977	88.6789
-30.6313758	89.5081
-30.61136184	43.5219
-30.59134787	61.073
-30.5713339	127.009
-30.55131994	139.469
-30.53130597	163.308
-30.511292	22.4045
-30.49127804	46.5198
-30.47126407	84.9141
-30.4512501	82.6945
-30.43123614	5.60262
-30.41122217	62.119
-30.3912082	32.0423
-30.37119424	142.627
-30.35118027	27.6915
-30.3311663	17.4059
-30.31115234	90.0154
-30.29113837	52.6549
-30.2711244	80.4187
-30.25111044	36.483
-30.23109647	62.4467
-30.21108251	64.3079
-30.19106854	40.8979
-30.17105457	83.5396
-30.15104061	49.4791
-30.13102664	78.2647
-30.11101267	31.1122
-30.09099871	7.60437
-30.07098474	116.029
-30.05097077	15.3516
-30.03095681	154.955
-30.01094284	116.851
-29.99092887	57.646
-29.97091491	58.9894
-29.95090094	61.5432
-29.93088697	180.396
-29.91087301	226.879
-29.89085904	61.855
-29.87084507	116.501
-29.85083111	69.9587
-29.83081714	93.5157
-29.81080317	95.9846
-29.79078921	96.8478
-29.77077524	121.224
-29.75076127	81.176
-29.73074731	64.1009
-29.71073334	69.6918
-29.69071937	23.4474
-29.67070541	88.0121
-29.65069144	14.6666
-29.63067748	173.318
-29.61066351	102.647
-29.59064954	119.129
-29.57063558	55.5869
-29.55062161	138.882
-29.53060764	102.033
-29.51059368	123.579
-29.49057971	110.412
-29.47056574	52.5567
-29.45055178	58.9818
-29.43053781	83.6155
-29.41052384	80.2092
-29.39050988	65.4986
-29.37049591	96.2232
-29.35048194	97.0285
-29.33046798	114.866
-29.31045401	24.9177
-29.29044004	44.3247
-29.27042608	118.703
-29.25041211	40.5923
-29.23039814	163.495
-29.21038418	55.1376
-29.19037021	43.2181
-29.17035624	26.6002
-29.15034228	87.3465
-29.13032831	58.4558
-29.11031435	168.848
-29.09030038	151.506
-29.07028641	49.3787
-29.05027245	72.589
-29.03025848	34.3207
-29.01024451	31.6782
-28.99023055	83.2636
-28.97021658	144.187
-28.95020261	141.661
-28.93018865	28.0664
-28.91017468	88.5075
-28.89016071	104.751
-28.87014675	84.3429
-28.85013278	85.4724
-28.83011881	22.339
-28.81010485	70.9451
-28.79009088	169.344
-28.77007691	67.188
-28.75006295	39.8978
-28.73004898	58.456
-28.71003501	147.445
-28.69002105	19.4354
-28.67000708	73.9689
-28.64999311	59.1247
-28.62997915	57.2382
-28.60996518	163.505
-28.58995121	20.7659
-28.56993725	99.9007
-28.54992328	218.456
-28.52990932	18.5697
-28.50989535	113.378
-28.48988138	146.797
-28.46986742	132.77
-28.44985345	88.8761
-28.42983948	43.3245
-28.40982552	18.4541
-28.38981155	174.157
-28.36979758	49.5833
-28.34978362	78.9885
-28.32976965	148.642
-28.30975568	81.2784
-28.28974172	126.756
-28.26972775	155.66
-28.24971378	96.7007
-28.22969982	59.9677
-28.20968585	125.613
-28.18967188	187.042
-28.16965792	71.3219
-28.14964395	90.3392
-28.12962998	107.383
-28.10961602	128.127
-28.08960205	150.955
-28.06958808	43.6786
-28.04957412	148.492
-28.02956015	184.772
-28.00954618	126.538
-27.98953222	143.733
-27.96951825	135.343
-27.94950429	118.528
-27.92949032	52.9018
-27.90947635	132.014
-27.88946239	41.1355
-27.86944842	102.936
-27.84943445	55.1619
-27.82942049	16.1827
-27.80940652	186.77
-27.78939255	116.498
-27.76937859	133.787
-27.74936462	103.613
-27.72935065	4.59568
-27.70933669	41.9033
-27.68932272	31.5119
-27.66930875	131.158
-27.64929479	82.1801
-27.62928082	119.418
-27.60926685	155.659
-27.58925289	156.935
-27.56923892	41.6858
-27.54922495	82.5463
-27.52921099	43.8162
-27.50919702	140.604
-27.48918305	144.659
-27.46916909	92.6952
-27.44915512	196.051
-27.42914115	29.8088
-27.40912719	83.2132
-27.38911322	30.7848
-27.36909926	87.7494
-27.34908529	72.0381
-27.32907132	69.6646
-27.30905736	108.196
-27.28904339	65.2969
-27.26902942	86.1621
-27.24901546	107.47
-27.22900149	47.3941
-27.20898752	75.3628
-27.18897356	23.0978
-27.16895959	108.192
-27.14894562	58.3793
-27.12893166	98.1125
-27.10891769	205.916
-27.08890372	77.8435
-27.06888976	37.8489
-27.04887579	75.6457
-27.02886182	75.0946
-27.00884786	78.8691
-26.98883389	58.7999
-26.96881992	103.488
-26.94880596	120.544
-26.92879199	18.5405
-26.90877802	35.5062
-26.88876406	48.7218
-26.86875009	71.6142
-26.84873613	177.227
-26.82872216	97.703
-26.80870819	59.1893
-26.78869423	164.086
-26.76868026	106.353
-26.74866629	145.999
-26.72865233	66.182
-26.70863836	68.4858
-26.68862439	44.375
-26.66861043	63.9411
-26.64859646	77.328
-26.62858249	71.6662
-26.60856853	12.1545
-26.58855456	112.809
-26.56854059	15.1021
-26.54852663	81.0708
-26.52851266	102.147
-26.50849869	57.611
-26.48848473	119.185
-26.46847076	11.8107
-26.44845679	116.082
-26.42844283	143.739
-26.40842886	51.4513
-26.38841489	147.257
-26.36840093	52.143
-26.34838696	23.9488
-26.32837299	163.361
-26.30835903	77.7223
-26.28834506	71.2233
-26.2683311	63.4004
-26.24831713	109.587
-26.22830316	105.177
-26.2082892	85.2564
-26.18827523	49.6348
-26.16826126	64.978
-26.1482473	108.607
-26.12823333	82.6918
-26.10821936	24.4931
-26.0882054	74.9934
-26.06819143	164.521
-26.04817746	112.686
-26.0281635	64.7273
-26.00814953	86.0084
-25.98813556	83.1288
-25.9681216	34.8105
-25.94810763	102.657
-25.92809366	65.0198
-25.9080797	73.4572
-25.88806573	138.208
-25.86805176	21.6752
-25.8480378	154.38
-25.82802383	73.0588
-25.80800986	110.139
-25.7879959	43.2743
-25.76798193	103.279
-25.74796796	39.2434
-25.727954	76.7039
-25.70794003	122.939
-25.68792607	144.27
-25.6679121	89.9379
-25.64789813	183.14
-25.62788417	94.542
-25.6078702	117.059
-25.58785623	93.3555
-25.56784227	89.4431
-25.5478283	61.7452
-25.52781433	68.9817
-25.50780037	74.0669
-25.4877864	28.0304
-25.46777243	142.616
-25.44775847	221.726
-25.4277445	139.822
-25.40773053	40.7452
-25.38771657	100.785
-25.3677026	130.889
-25.34768863	117.482
-25.32767467	162.952
-25.3076607	97.8396
-25.28764673	76.8872
-25.26763277	119.936
-25.2476188	109.764
-25.22760483	9.88723
-25.20759087	33.9958
-25.1875769	98.2418
-25.16756293	56.1984
-25.14754897	95.7583
-25.127535	15.6523
-25.10752104	39.9147
-25.08750707	52.3201
-25.0674931	93.6829
-25.04747914	86.8279
-25.02746517	113.066
-25.0074512	10.3493
-24.98743724	137.139
-24.96742327	89.1385
-24.9474093	33.7157
-24.92739534	75.2026
-24.90738137	135.015
-24.8873674	147.389
-24.86735344	41.6929
-24.84733947	92.3261
-24.8273255	74.3623
-24.80731154	76.6429
-24.78729757	32.5262
-24.7672836	131.172
-24.74726964	134.004
-24.72725567	60.7101
-24.7072417	86.0789
-24.68722774	34.9521
-24.66721377	9.2477
-24.6471998	72.5787
-24.62718584	76.8671
-24.60717187	70.9877
-24.58715791	142.601
-24.56714394	116.117
-24.54712997	71.1397
-24.52711601	98.9128
-24.50710204	79.5836
-24.48708807	66.6229
-24.46707411	76.1317
-24.44706014	155.16
-24.42704617	55.3742
-24.40703221	21.1129
-24.38701824	175.239
-24.36700427	40.7893
-24.34699031	71.9255
-24.32697634	50.5462
-24.30696237	63.7088
-24.28694841	75.3078
-24.26693444	42.4239
-24.24692047	51.3316
-24.22690651	106.676
-24.20689254	93.7048
-24.18687857	79.0032
-24.16686461	130.103
-24.14685064	87.9637
-24.12683667	41.7129
-24.10682271	95.0636
-24.08680874	129.895
-24.06679477	73.8154
-24.04678081	102.056
-24.02676684	38.2538
-24.00675288	58.6286
-23.98673891	43.7555
-23.96672494	42.4987
-23.94671098	75.1405
-23.92669701	30.6882
-23.90668304	73.231
-23.88666908	37.7675
-23.86665511	135.506
-23.84664114	96.9246
-23.82662718	29.8192
-23.80661321	45.4684
-23.78659924	84.0718
-23.76658528	69.2593
-23.74657131	34.263
-23.72655734	100.179
-23.70654338	68.6203
-23.68652941	123.714
-23.66651544	60.1453
-23.64650148	143.902
-23.62648751	83.5091
-23.60647354	136.685
-23.58645958	164.441
-23.56644561	71.042
-23.54643164	126.481
-23.52641768	156.654
-23.50640371	110.35
-23.48638974	95.9101
-23.46637578	93.6201
-23.44636181	57.104
-23.42634785	82.6301
-23.40633388	130.017
-23.38631991	70.7235
-23.36630595	68.6446
-23.34629198	99.9639
-23.32627801	50.5063
-23.30626405	60.9379
-23.28625008	81.599
-23.26623611	40.5614
-23.24622215	238.999
-23.22620818	147.705
-23.20619421	77.9955
-23.18618025	93.6961
-23.16616628	15.4144
-23.14615231	59.6004
-23.12613835	35.9911
-23.10612438	52.4337
-23.08611041	98.9514
-23.06609645	73.0907
-23.04608248	126.834
-23.02606851	45.9903
-23.00605455	77.9828
-22.98604058	40.241
-22.96602661	124.441
-22.94601265	68.8431
-22.92599868	23.4709
-22.90598471	33.511
-22.88597075	38.0838
-22.86595678	35.2907
-22.84594282	22.8017
-22.82592885	35.5329
-22.80591488	55.2316
-22.78590092	80.1521
-22.76588695	148.457
-22.74587298	137.374
-22.72585902	165.285
-22.70584505	71.7814
-22.68583108	197.345
-22.66581712	68.6602
-22.64580315	41.1982
-22.62578918	120.273
-22.60577522	83.4981
-22.58576125	27.1807
-22.56574728	69.4945
-22.54573332	20.5549
-22.52571935	34.668
-22.50570538	21.6786
-22.48569142	104.906
-22.46567745	119.688
-22.44566348	84.4767
-22.42564952	60.08
-22.40563555	29.323
-22.38562158	57.5537
-22.36560762	43.8551
-22.34559365	145.051
-22.32557969	63.3106
-22.30556572	162.807
-22.28555175	121.15
-22.26553779	157.481
-22.24552382	30.146
-22.22550985	57.6147
-22.20549589	101.645
-22.18548192	26.886
-22.16546795	66.9281
-22.14545399	131.297
-22.12544002	132.439
-22.10542605	39.3898
-22.08541209	111.312
-22.06539812	27.3555
-22.04538415	186.014
-22.02537019	104.914
-22.00535622	74.4792
-21.98534225	28.1059
-21.96532829	92.7594
-21.94531432	99.5808
-21.92530035	168.797
-21.90528639	47.7395
-21.88527242	82.3331
-21.86525845	63.5448
-21.84524449	36.808
-21.82523052	100.581
-21.80521655	111.501
-21.78520259	23.4605
-21.76518862	69.8365
-21.74517466	9.91118
-21.72516069	101.912
-21.70514672	48.4474
-21.68513276	94.8417
-21.66511879	23.8864
-21.64510482	130.898
-21.62509086	24.1624
-21.60507689	80.5089
-21.58506292	94.3062
-21.56504896	146.933
-21.54503499	129.702
-21.52502102	129.405
-21.50500706	161.861
-21.48499309	111.358
-21.46497912	106.404
-21.44496516	147.792
-21.42495119	75.4177
-21.40493722	103.76
-21.38492326	132.164
-21.36490929	47.9955
-21.34489532	43.1801
-21.32488136	149.29
-21.30486739	32.4998
-21.28485342	49.1906
-21.26483946	20.0259
-21.24482549	128.775
-21.22481152	111.53
-21.20479756	44.2528
-21.18478359	164.763
-21.16476963	22.3287
-21.14475566	97.0343
-21.12474169	37.6395
-21.10472773	69.286
-21.08471376	62.4005
-21.06469979	69.9097
-21.04468583	27.6584
-21.02467186	18.9199
-21.00465789	74.9183
-20.98464393	110.879
-20.96462996	71.231
-20.94461599	102.937
-20.92460203	102.659
-20.90458806	104.772
-20.88457409	78.8225
-20.86456013	131.987
-20.84454616	75.0379
-20.82453219	181.435
-20.80451823	53.6716
-20.78450426	78.532
-20.76449029	40.7144
-20.74447633	117.434
-20.72446236	69.5833
-20.70444839	120.897
-20.68443443	21.6611
-20.66442046	64.2564
-20.64440649	35.3074
-20.62439253	63.3638
-20.60437856	25.9191
-20.5843646	87.2146
-20.56435063	71.8255
-20.54433666	130.947
-20.5243227	91.689
-20.50430873	116.468
-20.48429476	83.7915
-20.4642808	96.9046
-20.44426683	22.9419
-20.42425286	255.279
-20.4042389	107.454
-20.38422493	32.955
-20.36421096	94.9031
-20.344197	69.4189
-20.32418303	93.4246
-20.30416906	78.7294
-20.2841551	111.08
-20.26414113	58.4169
-20.24412716	169.336
-20.2241132	97.8855
-20.20409923	59.5179
-20.18408526	75.2873
-20.1640713	64.6775
-20.14405733	125.239
-20.12404336	30.4784
-20.1040294	96.3158
-20.08401543	98.0128
-20.06400147	70.012
-20.0439875	4.47514
-20.02397353	13.5965
-20.00395957	93.8064
-19.9839456	132.687
-19.96393163	94.3075
-19.94391767	43.7468
-19.9239037	252.279
-19.90388973	164.543
-19.88387577	17.2807
-19.8638618	78.8741
-19.84384783	32.7313
-19.82383387	24.1935
-19.8038199	78.0176
-19.78380593	64.9804
-19.76379197	33.7462
-19.743778	73.3653
-19.72376403	91.584
-19.70375007	79.0003
-19.6837361	68.9508
-19.66372213	125.786
-19.64370817	62.7005
-19.6236942	78.2926
-19.60368023	128.512
-19.58366627	37.0473
-19.5636523	79.7807
-19.54363833	37.6901
-19.52362437	189.532
-19.5036104	92.2109
-19.48359644	87.2392
-19.46358247	126.534
-19.4435685	32.941
-19.42355454	71.4955
-19.40354057	8.14738
-19.3835266	30.2787
-19.36351264	67.3306
-19.34349867	155.112
-19.3234847	80.1259
-19.30347074	42.0707
-19.28345677	73.6075
-19.2634428	235.345
-19.24342884	49.8078
-19.22341487	60.0995
-19.2034009	108.947
-19.18338694	66.4762
-19.16337297	105.125
-19.143359	35.0641
-19.12334504	138.475
-19.10333107	210.784
-19.0833171	128.771
-19.06330314	77.5324
-19.04328917	120.595
-19.0232752	71.2502
-19.00326124	61.7911
-18.98324727	107.612
-18.9632333	109.43
-18.94321934	57.3366
-18.92320537	20.4229
-18.90319141	133.662
-18.88317744	130.227
-18.86316347	68.7772
-18.84314951	46.8523
-18.82313554	66.7074
-18.80312157	76.9398
-18.78310761	43.6293
-18.76309364	102.532
-18.74307967	80.7127
-18.72306571	141.601
-18.70305174	71.6323
-18.68303777	80.6329
-18.66302381	23.7417
-18.64300984	125.589
-18.62299587	34.3741
-18.60298191	100.122
-18.58296794	54.4768
-18.56295397	78.5633
-18.54294001	76.6943
-18.52292604	167.515
-18.50291207	26.0152
-18.48289811	43.8453
-18.46288414	87.8507
-18.44287017	109.613
-18.42285621	40.0527
-18.40284224	44.9097
-18.38282827	23.1451
-18.36281431	170.649
-18.34280034	21.1071
-18.32278638	91.8227
-18.30277241	51.1884
-18.28275844	62.9352
-18.26274448	24.263
-18.24273051	76.9502
-18.22271654	64.3103
-18.20270258	79.8074
-18.18268861	70.9232
-18.16267464	10.3033
-18.14266068	67.88
-18.12264671	204.867
-18.10263274	109.884
-18.08261878	73.0587
-18.06260481	72.722
-18.04259084	49.5679
-18.02257688	40.7543
-18.00256291	91.3235
-17.98254894	41.9878
-17.96253498	151.69
-17.94252101	72.9996
-17.92250704	126.301
-17.90249308	14.9474
-17.88247911	114.912
-17.86246514	120.031
-17.84245118	43.4693
-17.82243721	32.8979
-17.80242325	40.0283
-17.78240928	134.633
-17.76239531	30.2268
-17.74238135	75.4126
-17.72236738	75.2836
-17.70235341	189.901
-17.68233945	82.0653
-17.66232548	125.974
-17.64231151	79.8346
-17.62229755	78.1959
-17.60228358	32.711
-17.58226961	81.6833
-17.56225565	172.678
-17.54224168	19.5484
-17.52222771	98.3651
-17.50221375	83.3413
-17.48219978	123.187
-17.46218581	61.6541
-17.44217185	34.1504
-17.42215788	134.631
-17.40214391	69.0595
-17.38212995	32.402
-17.36211598	99.0928
-17.34210201	81.5613
-17.32208805	34.1916
-17.30207408	92.1428
-17.28206011	59.9274
-17.26204615	88.911
-17.24203218	78.2846
-17.22201822	147.802
-17.20200425	126.8
-17.18199028	48.4034
-17.16197632	48.7119
-17.14196235	131.567
-17.12194838	138.333
-17.10193442	110.472
-17.08192045	80.7135
-17.06190648	4.48842
-17.04189252	65.1874
-17.02187855	112.486
-17.00186458	34.4948
-16.98185062	59.6843
-16.96183665	164.648
-16.94182268	79.1003
-16.92180872	64.1216
-16.90179475	121.832
-16.88178078	25.7069
-16.86176682	42.2055
-16.84175285	43.9593
-16.82173888	26.6666
-16.80172492	112.715
-16.78171095	111.977
-16.76169698	147.066
-16.74168302	28.4688
-16.72166905	95.8204
-16.70165508	78.9298
-16.68164112	147.887
-16.66162715	14.71
-16.64161319	15.707
-16.62159922	41.7059
-16.60158525	85.2076
-16.58157129	43.5663
-16.56155732	31.8653
-16.54154335	115.243
-16.52152939	20.1416
-16.50151542	108.336
-16.48150145	100.21
-16.46148749	45.4243
-16.44147352	20.4282
-16.42145955	71.4568
-16.40144559	141.464
-16.38143162	16.8344
-16.36141765	49.9931
-16.34140369	27.6741
-16.32138972	18.0838
-16.30137575	102.817
-16.28136179	60.2415
-16.26134782	32.827
-16.24133385	136.313
-16.22131989	43.2632
-16.20130592	68.6677
-16.18129195	105.305
-16.16127799	88.7776
-16.14126402	87.7691
-16.12125005	72.5321
-16.10123609	144.001
-16.08122212	113.016
-16.06120816	129.215
-16.04119419	46.9693
-16.02118022	71.6613
-16.00116626	73.0758
-15.98115229	92.4719
-15.96113832	32.3733
-15.94112436	135.816
-15.92111039	63.7331
-15.90109642	17.366
-15.88108246	50.4819
-15.86106849	77.0153
-15.84105452	32.4932
-15.82104056	36.5181
-15.80102659	22.9316
-15.78101262	148.327
-15.76099866	66.5717
-15.74098469	131.151
-15.72097072	173.381
-15.70095676	114.612
-15.68094279	141.09
-15.66092882	113.976
-15.64091486	75.2366
-15.62090089	43.3634
-15.60088692	40.8604
-15.58087296	43.073
-15.56085899	85.8134
-15.54084503	42.4305
-15.52083106	131.629
-15.50081709	38.739
-15.48080313	81.2078
-15.46078916	17.2714
-15.44077519	108.939
-15.42076123	119.888
-15.40074726	49.0296
-15.38073329	55.6069
-15.36071933	56.1704
-15.34070536	55.0996
-15.32069139	74.0539
-15.30067743	67.0118
-15.28066346	93.6206
-15.26064949	93.1218
-15.24063553	136.351
-15.22062156	66.0792
-15.20060759	151.929
-15.18059363	35.1559
-15.16057966	151.875
-15.14056569	30.5628
-15.12055173	102.972
-15.10053776	92.6855
-15.08052379	115.782
-15.06050983	64.27
-15.04049586	56.3442
-15.02048189	19.7042
-15.00046793	174.28
-14.98045396	139.808
-14.96044	37.9308
-14.94042603	93.7734
-14.92041206	37.9203
-14.9003981	147.726
-14.88038413	39.1298
-14.86037016	111.851
-14.8403562	80.6376
-14.82034223	36.4025
-14.80032826	24.4492
-14.7803143	80.4507
-14.76030033	58.1847
-14.74028636	88.9256
-14.7202724	62.2097
-14.70025843	52.9558
-14.68024446	152.111
-14.6602305	159.33
-14.64021653	186.388
-14.62020256	125.977
-14.6001886	78.8535
-14.58017463	15.6987
-14.56016066	105.714
-14.5401467	63.5564
-14.52013273	105.878
-14.50011876	123.798
-14.4801048	133.98
-14.46009083	93.3378
-14.44007686	173.165
-14.4200629	142.638
-14.40004893	40.9857
-14.38003497	95.1407
-14.360021	75.923
-14.34000703	18.4797
-14.31999307	102.628
-14.2999791	88.6527
-14.27996513	92.0938
-14.25995117	127.381
-14.2399372	11.7581
-14.21992323	106.951
-14.19990927	33.1142
-14.1798953	48.87
-14.15988133	134.14
-14.13986737	80.4529
-14.1198534	136.378
-14.09983943	104.096
-14.07982547	14.1896
-14.0598115	91.9535
-14.03979753	61.6709
-14.01978357	82.2161
-13.9997696	56.7949
-13.97975563	85.011
-13.95974167	18.5137
-13.9397277	112.996
-13.91971373	51.5865
-13.89969977	94.0297
-13.8796858	29.6746
-13.85967183	67.6768
-13.83965787	63.419
-13.8196439	42.0806
-13.79962994	43.5203
-13.77961597	91.7913
-13.759602	50.2364
-13.73958804	8.03372
-13.71957407	83.9158
-13.6995601	7.72217
-13.67954614	112.788
-13.65953217	156.706
-13.6395182	52.477
-13.61950424	232.542
-13.59949027	127.401
-13.5794763	46.8253
-13.55946234	67.6582
-13.53944837	62.7817
-13.5194344	61.4651
-13.49942044	73.8375
-13.47940647	87.2011
-13.4593925	120.103
-13.43937854	18.5301
-13.41936457	10.1807
-13.3993506	138.533
-13.37933664	79.8564
-13.35932267	36.3587
-13.3393087	83.7363
-13.31929474	56.2107
-13.29928077	135.749
-13.27926681	9.27038
-13.25925284	42.1804
-13.23923887	66.0502
-13.21922491	57.4546
-13.19921094	73.4333
-13.17919697	120.305
-13.15918301	138.055
-13.13916904	46.7329
-13.11915507	155.805
-13.09914111	36.5
-13.07912714	145.18
-13.05911317	101.131
-13.03909921	107.485
-13.01908524	211.207
-12.99907127	32.6331
-12.97905731	116.963
-12.95904334	91.9638
-12.93902937	119.81
-12.91901541	123.436
-12.89900144	100.95
-12.87898747	89.2295
-12.85897351	123.738
-12.83895954	65.2668
-12.81894557	86.746
-12.79893161	35.6056
-12.77891764	55.2429
-12.75890367	40.9574
-12.73888971	109.191
-12.71887574	134.992
-12.69886178	72.9655
-12.67884781	84.3497
-12.65883384	37.25
-12.63881988	72.6391
-12.61880591	137
-12.59879194	26.7008
-12.57877798	94.6493
-12.55876401	117.719
-12.53875004	109.562
-12.51873608	143.887
-12.49872211	136.634
-12.47870814	89.9661
-12.45869418	42.2148
-12.43868021	107.266
-12.41866624	112.585
-12.39865228	52.3222
-12.37863831	48.4663
-12.35862434	55.7615
-12.33861038	101.667
-12.31859641	152.505
-12.29858244	53.3423
-12.27856848	98.1495
-12.25855451	84.9247
-12.23854054	47.2252
-12.21852658	103.448
-12.19851261	175.105
-12.17849864	23.5954
-12.15848468	13.5049
-12.13847071	92.6091
-12.11845675	127.408
-12.09844278	64.9049
-12.07842881	147.359
-12.05841485	21.3714
-12.03840088	135.2
-12.01838691	83.2273
-11.99837295	134.419
-11.97835898	84.8265
-11.95834501	181.05
-11.93833105	68.2651
-11.91831708	165.3
-11.89830311	37.4522
-11.87828915	133.738
-11.85827518	52.0267
-11.83826121	108.98
-11.81824725	59.3153
-11.79823328	50.4902
-11.77821931	133.095
-11.75820535	47.6671
-11.73819138	99.6206
-11.71817741	55.5701
-11.69816345	150.547
-11.67814948	103.799
-11.65813551	28.2137
-11.63812155	17.9676
-11.61810758	56.5155
-11.59809361	50.6725
-11.57807965	54.5886
-11.55806568	62.2001
-11.53805172	76.3977
-11.51803775	9.88599
-11.49802378	69.9301
-11.47800982	56.7032
-11.45799585	114.038
-11.43798188	39.5003
-11.41796792	35.009
-11.39795395	115.785
-11.37793998	100.206
-11.35792602	58.6276
-11.33791205	79.8338
-11.31789808	98.6671
-11.29788412	98.2165
-11.27787015	89.6814
-11.25785618	43.1334
-11.23784222	79.5915
-11.21782825	180.428
-11.19781428	132.125
-11.17780032	120.707
-11.15778635	42.2157
-11.13777238	102.063
-11.11775842	60.8851
-11.09774445	48.1375
-11.07773048	30.6519
-11.05771652	30.742
-11.03770255	133.175
-11.01768859	94.6749
-10.99767462	30.5956
-10.97766065	64.7895
-10.95764669	26.59
-10.93763272	105.111
-10.91761875	76.9846
-10.89760479	166.334
-10.87759082	49.1401
-10.85757685	53.2157
-10.83756289	14.0746
-10.81754892	35.5888
-10.79753495	141.052
-10.77752099	69.6009
-10.75750702	105.285
-10.73749305	171.689
-10.71747909	24.3233
-10.69746512	8.83965
-10.67745115	94.4828
-10.65743719	100.064
-10.63742322	42.5793
-10.61740925	136.083
-10.59739529	145.347
-10.57738132	62.2694
-10.55736735	50.3627
-10.53735339	10.9281
-10.51733942	119.145
-10.49732545	37.2393
-10.47731149	145.476
-10.45729752	41.9035
-10.43728356	17.5586
-10.41726959	150.764
-10.39725562	130.429
-10.37724166	15.9078
-10.35722769	111.602
-10.33721372	144.673
-10.31719976	59.7886
-10.29718579	75.6079
-10.27717182	145.173
-10.25715786	49.3043
-10.23714389	40.5293
-10.21712992	164.434
-10.19711596	133.862
-10.17710199	37.0529
-10.15708802	38.0206
-10.13707406	160.559
-10.11706009	90.4168
-10.09704612	13.1918
-10.07703216	4.18369
-10.05701819	95.0861
-10.03700422	134.28
-10.01699026	82.9217
-9.996976291	58.1478
-9.976962325	38.8824
-9.956948358	57.0064
-9.936934391	52.4304
-9.916920425	69.467
-9.896906458	34.1729
-9.876892492	61.7454
-9.856878525	84.7675
-9.836864559	35.0169
-9.816850592	179.949
-9.796836626	16.0045
-9.776822659	17.8504
-9.756808692	30.4293
-9.736794726	38.4221
-9.716780759	200.449
-9.696766793	127.41
-9.676752826	148.455
-9.65673886	58.1485
-9.636724893	115.221
-9.616710927	38.9891
-9.59669696	77.3532
-9.576682994	45.9618
-9.556669027	148.002
-9.53665506	56.9393
-9.516641094	130.952
-9.496627127	94.7024
-9.476613161	47.4879
-9.456599194	120.19
-9.436585228	98.4778
-9.416571261	125.754
-9.396557295	31.1944
-9.376543328	119.545
-9.356529361	16.4315
-9.336515395	103.78
-9.316501428	116.26
-9.296487462	8.89826
-9.276473495	125.963
-9.256459529	54.5698
-9.236445562	214.256
-9.216431596	42.38
-9.196417629	34.9116
-9.176403663	25.8992
-9.156389696	119.438
-9.136375729	53.1867
-9.116361763	78.9099
-9.096347796	45.6578
-9.07633383	137.629
-9.056319863	69.7517
-9.036305897	31.4714
-9.01629193	161.022
-8.996277964	62.147
-8.976263997	43.2785
-8.956250031	43.0479
-8.936236064	39.6774
-8.916222097	28.1445
-8.896208131	48.3078
-8.876194164	145.544
-8.856180198	36.8581
-8.836166231	78.0367
-8.816152265	71.1949
-8.796138298	59.987
-8.776124332	89.9256
-8.756110365	85.2216
-8.736096398	156.412
-8.716082432	125.676
-8.696068465	121.082
-8.676054499	62.7997
-8.656040532	81.9863
-8.636026566	167.972
-8.616012599	106.067
-8.595998633	24.8187
-8.575984666	49.0064
-8.5559707	76.6938
-8.535956733	57.0498
-8.515942766	51.5866
-8.4959288	68.5616
-8.475914833	44.9695
-8.455900867	24.096
-8.4358869	99.4573
-8.415872934	109.798
-8.395858967	105.048
-8.375845001	61.3397
-8.355831034	100.202
-8.335817068	87.0213
-8.315803101	94.3244
-8.295789134	92.5222
-8.275775168	65.4338
-8.255761201	68.8149
-8.235747235	59.8656
-8.215733268	53.2332
-8.195719302	52.4719
-8.175705335	106.821
-8.155691369	58.6691
-8.135677402	113.67
-8.115663435	105.197
-8.095649469	35.9054
-8.075635502	103.737
-8.055621536	211.381
-8.035607569	70.5128
-8.015593603	79.1222
-7.995579636	95.9784
-7.97556567	93.9408
-7.955551703	126.407
-7.935537737	182.044
-7.91552377	77.2439
-7.895509803	89.4731
-7.875495837	99.7101
-7.85548187	46.7181
-7.835467904	120.408
-7.815453937	101.209
-7.795439971	69.0893
-7.775426004	112.327
-7.755412038	51.6686
-7.735398071	102.399
-7.715384105	71.055
-7.695370138	176.828
-7.675356171	10.7245
-7.655342205	76.4454
-7.635328238	103.389
-7.615314272	35.821
-7.595300305	143.244
-7.575286339	109.474
-7.555272372	67.0261
-7.535258406	50.3909
-7.515244439	131.817
-7.495230472	78.5601
-7.475216506	127.874
-7.455202539	85.3157
-7.435188573	83.846
-7.415174606	69.4293
-7.39516064	134.706
-7.375146673	98.2051
-7.355132707	136.634
-7.33511874	150.546
-7.315104774	155.611
-7.295090807	104.444
-7.27507684	98.2247
-7.255062874	139.546
-7.235048907	47.1831
-7.215034941	69.8823
-7.195020974	87.3857
-7.175007008	51.061
-7.154993041	61.6061
-7.134979075	93.9181
-7.114965108	16.6806
-7.094951141	133.569
-7.074937175	121.334
-7.054923208	92.976
-7.034909242	118.923
-7.014895275	15.6291
-6.994881309	94.6715
-6.974867342	10.884
-6.954853376	138.564
-6.934839409	53.6651
-6.914825443	67.2096
-6.894811476	173.937
-6.874797509	67.2482
-6.854783543	62.502
-6.834769576	162.726
-6.81475561	37.3616
-6.794741643	22.3443
-6.774727677	98.1644
-6.75471371	110.625
-6.734699744	110.72
-6.714685777	192.437
-6.694671811	173.303
-6.674657844	61.5322
-6.654643877	27.5127
-6.634629911	119.344
-6.614615944	131.235
-6.594601978	48.5081
-6.574588011	140.345
-6.554574045	58.3565
-6.534560078	166.083
-6.514546112	35.88
-6.494532145	15.482
-6.474518178	57.1565
-6.454504212	104.272
-6.434490245	107.512
-6.414476279	124.22
-6.394462312	88.3706
-6.374448346	28.5868
-6.354434379	33.3325
-6.334420413	162.293
-6.314406446	96.9847
-6.29439248	108.388
-6.274378513	72.7355
-6.254364546	103.614
-6.23435058	104.754
-6.214336613	97.3769
-6.194322647	168.448
-6.17430868	20.4485
-6.154294714	167.846
-6.134280747	98.3463
-6.114266781	115.335
-6.094252814	78.6854
-6.074238848	70.7533
-6.054224881	116.209
-6.034210914	4.45887
-6.014196948	53.8423
-5.994182981	84.9574
-5.974169015	124.03
-5.954155048	25.3077
-5.934141082	106.081
-5.914127115	121.702
-5.894113149	129.756
-5.874099182	109.456
-5.854085215	99.3816
-5.834071249	78.5789
-5.814057282	101.86
-5.794043316	87.3699
-5.774029349	45.3807
-5.754015383	57.2478
-5.734001416	143.265
-5.71398745	86.3248
-5.693973483	65.596
-5.673959517	73.4845
-5.65394555	52.9956
-5.633931583	131.229
-5.613917617	97.5942
-5.59390365	120.919
-5.573889684	96.6329
-5.553875717	14.8591
-5.533861751	83.6236
-5.513847784	84.9202
-5.493833818	63.4885
-5.473819851	142.498
-5.453805885	84.26
-5.433791918	67.2362
-5.413777951	197.118
-5.393763985	190.579
-5.373750018	32.1207
-5.353736052	64.4341
-5.333722085	58.6291
-5.313708119	120.801
-5.293694152	89.2374
-5.273680186	14.691
-5.253666219	230.983
-5.233652252	31.6777
-5.213638286	144.807
-5.193624319	109.3
-5.173610353	111.08
-5.153596386	33.8398
-5.13358242	81.8219
-5.113568453	18.8897
-5.093554487	128.589
-5.07354052	149.628
-5.053526554	41.2352
-5.033512587	109.985
-5.01349862	143.925
-4.993484654	79.1925
-4.973470687	87.7982
-4.953456721	106.693
-4.933442754	93.4368
-4.913428788	130.62
-4.893414821	60.3664
-4.873400855	75.2825
-4.853386888	58.7907
-4.833372921	74.5514
-4.813358955	25.8235
-4.793344988	83.2243
-4.773331022	30.178
-4.753317055	85.515
-4.733303089	148.416
-4.713289122	44.6007
-4.693275156	80.8907
-4.673261189	83.279
-4.653247223	150.391
-4.633233256	142.142
-4.613219289	231.755
-4.593205323	174.148
-4.573191356	99.7795
-4.55317739	144.007
-4.533163423	135.924
-4.513149457	93.4096
-4.49313549	85.4377
-4.473121524	119.191
-4.453107557	122.229
-4.433093591	76.6232
-4.413079624	64.8688
-4.393065657	58.5045
-4.373051691	103.52
-4.353037724	62.2229
-4.333023758	16.8179
-4.313009791	25.9515
-4.292995825	27.2534
-4.272981858	29.3503
-4.252967892	52.554
-4.232953925	227.936
-4.212939958	69.0577
-4.192925992	85.8532
-4.172912025	106.377
-4.152898059	69.3643
-4.132884092	49.0335
-4.112870126	60.0997
-4.092856159	138.851
-4.072842193	38.5794
-4.052828226	89.5021
-4.03281426	68.8907
-4.012800293	27.8385
-3.992786326	104.296
-3.97277236	103.56
-3.952758393	63.5748
-3.932744427	42.2708
-3.91273046	38.8044
-3.892716494	73.0402
-3.872702527	109.176
-3.852688561	152.637
-3.832674594	192.023
-3.812660628	184.039
-3.792646661	106.061
-3.772632694	160.177
-3.752618728	74.6179
-3.732604761	41.3554
-3.712590795	15.6113
-3.692576828	209.115
-3.672562862	67.8065
-3.652548895	65.9253
-3.632534929	56.2707
-3.612520962	57.8724
-3.592506995	98.6803
-3.572493029	131.734
-3.552479062	129.443
-3.532465096	19.9159
-3.512451129	164.016
-3.492437163	22.3493
-3.472423196	152.826
-3.45240923	31.7398
-3.432395263	91.1139
-3.412381297	106.168
-3.39236733	97.7196
-3.372353363	148.796
-3.352339397	168.123
-3.33232543	74.6836
-3.312311464	151.058
-3.292297497	45.9257
-3.272283531	65.3891
-3.252269564	145.404
-3.232255598	98.2017
-3.212241631	116.418
-3.192227665	100.795
-3.172213698	177.635
-3.152199731	118.414
-3.132185765	80.7747
-3.112171798	132.413
-3.092157832	173.892
-3.072143865	121.151
-3.052129899	163.943
-3.032115932	109.622
-3.012101966	166.6
-2.992087999	180.719
-2.972074032	77.8708
-2.952060066	136.454
-2.932046099	111.958
-2.912032133	11.0674
-2.892018166	149.604
-2.8720042	111.036
-2.851990233	105.275
-2.831976267	139.841
-2.8119623	37.1657
-2.791948334	86.7194
-2.771934367	68.221
-2.7519204	85.0796
-2.731906434	124.089
-2.711892467	63.3326
-2.691878501	182.354
-2.671864534	90.0934
-2.651850568	101.339
-2.631836601	176.55
-2.611822635	102.361
-2.591808668	152.271
-2.571794702	74.5154
-2.551780735	105.965
-2.531766768	111.189
-2.511752802	174.533
-2.491738835	133.627
-2.471724869	154.673
-2.451710902	119.39
-2.431696936	136.435
-2.411682969	107.902
-2.391669003	130.302
-2.371655036	74.0667
-2.351641069	101.737
-2.331627103	158.151
-2.311613136	118.159
-2.29159917	130.148
-2.271585203	97.0409
-2.251571237	96.5754
-2.23155727	113.633
-2.211543304	162.325
-2.191529337	49.5172
-2.171515371	144.631
-2.151501404	135.524
-2.131487437	170.147
-2.111473471	68.4658
-2.091459504	65.4416
-2.071445538	118.263
-2.051431571	160.359
-2.031417605	216.485
-2.011403638	206.438
-1.991389672	168.827
-1.971375705	89.06
-1.951361738	200.723
-1.931347772	192.628
-1.911333805	205.855
-1.891319839	229.826
-1.871305872	131.438
-1.851291906	222.396
-1.831277939	83.4922
-1.811263973	172.722
-1.791250006	106.566
-1.77123604	136.351
-1.751222073	172.721
-1.731208106	241.974
-1.71119414	250.491
-1.691180173	152.294
-1.671166207	95.5656
-1.65115224	222.595
-1.631138274	186.782
-1.611124307	207.577
-1.591110341	262.719
-1.571096374	270.968
-1.551082408	222.118
-1.531068441	293.71
-1.511054474	352.861
-1.491040508	433.125
-1.471026541	285.161
-1.451012575	244.678
-1.430998608	297.004
-1.410984642	230.988
-1.390970675	403.927
-1.370956709	382.636
-1.350942742	515.747
-1.330928775	353.6
-1.310914809	362.828
-1.290900842	444.757
-1.270886876	466.112
-1.250872909	433.397
-1.230858943	632.452
-1.210844976	590.019
-1.19083101	600.345
-1.170817043	576.069
-1.150803077	762.504
-1.13078911	708.155
-1.110775143	691.619
-1.090761177	581.732
-1.07074721	850.549
-1.050733244	874.233
-1.030719277	629.109
-1.010705311	801.035
-0.9906913442	758.046
-0.9706773776	589.155
-0.9506634111	686.625
-0.9306494445	582.88
-0.910635478	688.206
-0.8906215114	695.091
-0.8706075449	754.809
-0.8505935783	703.82
-0.8305796118	657.013
-0.8105656452	650.086
-0.7905516787	647.588
-0.7705377121	769.076
-0.7505237456	681.454
-0.730509779	566.518
-0.7104958125	500.602
-0.6904818459	421.598
-0.6704678794	586.188
-0.6504539128	624.241
-0.6304399463	701.985
-0.6104259797	588.597
-0.5904120132	515.641
-0.5703980466	747.205
-0.5503840801	676.244
-0.5303701135	617.709
-0.510356147	817.14
-0.4903421804	825.922
-0.4703282139	805.736
-0.4503142473	952.473
-0.4303002808	958.39
-0.4102863142	1201.91
-0.3902723477	1074.66
-0.3702583812	1109.2
-0.3502444146	1120.97
-0.3302304481	1195.46
-0.3102164815	1255.51
-0.290202515	1200.55
-0.2701885484	1275.5
-0.2501745819	1234.55
-0.2301606153	1305.01
-0.2101466488	1402.53
-0.1901326822	1288.73
-0.1701187157	1239.25
-0.1501047491	1257.02
-0.1300907826	1098.01
-0.110076816	1142.42
-0.09006284947	964.32
-0.07004888292	852.569
-0.05003491637	700.899
-0.03002094982	634.895
-0.01000698327	673.71
0.01000698327	621.713
0.03002094982	529.517
0.05003491637	491.361
0.07004888292	457.435
0.09006284947	508.819
0.110076816	444.297
0.1300907826	410.86
0.1501047491	431.834
0.1701187157	391.316
0.1901326822	406.119
0.2101466488	390.484
0.2301606153	404.24
0.2501745819	385.561
0.2701885484	468.18
0.290202515	243.857
0.3102164815	187.266
0.3302304481	396.936
0.3502444146	202.413
0.3702583812	248.068
0.3902723477	350.986
0.4102863142	274.227
0.4303002808	305.56
0.4503142473	225.768
0.4703282139	260.775
0.4903421804	191.138
0.510356147	259.059
0.5303701135	163.838
0.5503840801	311.333
0.5703980466	237.499
0.5904120132	205.169
0.6104259797	228.522
0.6304399463	103.05
0.6504539128	276.532
0.6704678794	177.295
0.6904818459	309.487
0.7104958125	323.837
0.730509779	215.682
0.7505237456	247.493
0.7705377121	157.814
0.7905516787	253.997
0.8105656452	165.194
0.8305796118	49.6412
0.8505935783	235.701
0.8706075449	161.667
0.8906215114	247.237
0.910635478	184.794
0.9306494445	239.465
0.9506634111	269.2
0.9706773776	150.619
0.9906913442	218.01
1.010705311	277.122
1.030719277	316.576
1.050733244	146.59
1.07074721	173.777
1.090761177	180.176
1.110775143	133.695
1.13078911	291.511
1.150803077	125.323
1.170817043	254.766
1.19083101	296.267
1.210844976	405.316
1.230858943	314.131
1.250872909	519.205
1.270886876	424.201
1.290900842	624.504
1.310914809	702.063
1.330928775	626.943
1.350942742	599.883
1.370956709	758.197
1.390970675	609.989
1.410984642	456.196
1.430998608	276.62
1.451012575	301.682
1.471026541	164.753
1.491040508	87.4711
1.511054474	130.093
1.531068441	47.604
1.551082408	114.816
1.571096374	102.486
1.591110341	55.92
1.611124307	114.049
1.631138274	90.2805
1.65115224	47.4605
1.671166207	107.955
1.691180173	165.736
1.71119414	158.362
1.731208106	93.714
1.751222073	71.52
1.77123604	58.255
1.791250006	123.784
1.811263973	100.407
1.831277939	114.496
1.851291906	185.767
1.871305872	112.945
1.891319839	145.86
1.911333805	112.005
1.931347772	166.161
1.951361738	123.014
1.971375705	31.875
1.991389672	113.826
2.011403638	92.6065
2.031417605	51.482
2.051431571	142.673
2.071445538	117.922
2.091459504	85.4572
2.111473471	40.1265
2.131487437	64.5723
2.151501404	40.515
2.171515371	170.432
2.191529337	42.0192
2.211543304	134.947
2.23155727	53.8416
2.251571237	61.6673
2.271585203	34.9827
2.29159917	103.335
2.311613136	63.4689
2.331627103	57.7505
2.351641069	42.1601
2.371655036	162.757
2.391669003	172.94
2.411682969	31.6437
2.431696936	52.8682
2.451710902	218.557
2.471724869	16.1919
2.491738835	111.405
2.511752802	110.206
2.531766768	40.3707
2.551780735	128.861
2.571794702	55.0343
2.591808668	109.761
2.611822635	29.9478
2.631836601	144.289
2.651850568	92.9735
2.671864534	84.3654
2.691878501	52.173
2.711892467	22.6221
2.731906434	111.675
2.7519204	157.887
2.771934367	66.8669
2.791948334	17.3199
2.8119623	45.3468
2.831976267	66.3627
2.851990233	164.255
2.8720042	65.9596
2.892018166	51.9243
2.912032133	74.711
2.932046099	128.685
2.952060066	70.8538
2.972074032	135.205
2.992087999	15.4511
3.012101966	76.7886
3.032115932	157.867
3.052129899	132.126
3.072143865	20.0172
3.092157832	108.76
3.112171798	88.0558
3.132185765	171.68
3.152199731	57.5676
3.172213698	68.6015
3.192227665	160.797
3.212241631	126.893
3.232255598	150.819
3.252269564	81.2082
3.272283531	132.145
3.292297497	108.556
3.312311464	64.0561
3.33232543	126.332
3.352339397	105.502
3.372353363	58.4472
3.39236733	149.644
3.412381297	156.033
3.432395263	48.6951
3.45240923	124.178
3.472423196	79.9275
3.492437163	38.7243
3.512451129	131.062
3.532465096	98.4114
3.552479062	156.058
3.572493029	86.8187
3.592506995	151.528
3.612520962	124.916
3.632534929	95.6377
3.652548895	146.078
3.672562862	35.1678
3.692576828	97.7044
3.712590795	68.298
3.732604761	43.8444
3.752618728	56.6948
3.772632694	139.397
3.792646661	84.9918
3.812660628	117.602
3.832674594	12.6237
3.852688561	27.1855
3.872702527	67.7793
3.892716494	25.9622
3.91273046	112.222
3.932744427	83.5745
3.952758393	17.5675
3.97277236	57.2627
3.992786326	52.2056
4.012800293	149.018
4.03281426	42.8954
4.052828226	70.1177
4.072842193	68.6998
4.092856159	168.381
4.112870126	119.186
4.132884092	74.656
4.152898059	38.5081
4.172912025	57.4259
4.192925992	43.6254
4.212939958	95.9033
4.232953925	75.3737
4.252967892	214.979
4.272981858	111.788
4.292995825	113.139
4.313009791	128.001
4.333023758	81.4653
4.353037724	68.3833
4.373051691	71.4078
4.393065657	58.2553
4.413079624	193.077
4.433093591	142.757
4.453107557	107.528
4.473121524	100.26
4.49313549	105.8
4.513149457	127.58
4.533163423	169.758
4.55317739	104.557
4.573191356	12.8714
4.593205323	114.336
4.613219289	5.14517
4.633233256	125.184
4.653247223	82.8161
4.673261189	52.0283
4.693275156	96.7936
4.713289122	38.679
4.733303089	35.7754
4.753317055	48.9172
4.773331022	53.4002
4.793344988	92.9536
4.813358955	38.3146
4.833372921	135.568
4.853386888	22.6545
4.873400855	161.705
4.893414821	80.2492
4.913428788	138.382
4.933442754	13.9057
4.953456721	44.6951
4.973470687	79.2158
4.993484654	69.2663
5.01349862	72.2779
5.033512587	114.88
5.053526554	215.069
5.07354052	58.5854
5.093554487	52.8308
5.113568453	227.082
5.13358242	58.6941
5.153596386	60.3799
5.173610353	80.1976
5.193624319	46.1847
5.213638286	41.3124
5.233652252	104.614
5.253666219	153.698
5.273680186	135.845
5.293694152	187.941
5.313708119	161.324
5.333722085	171.357
5.353736052	114.647
5.373750018	34.5031
5.393763985	38.9963
5.413777951	21.1701
5.433791918	67.2815
5.453805885	127.525
5.473819851	64.2427
5.493833818	65.053
5.513847784	73.1593
5.533861751	103.449
5.553875717	13.7351
5.573889684	77.4135
5.59390365	147.905
5.613917617	15.907
5.633931583	160.492
5.65394555	64.5055
5.673959517	69.8905
5.693973483	165.266
5.71398745	52.5529
5.734001416	115.74
5.754015383	37.6885
5.774029349	58.7561
5.794043316	52.8166
5.814057282	116.16
5.834071249	177.765
5.854085215	142.34
5.874099182	100.49
5.894113149	62.8391
5.914127115	187.253
5.934141082	113.981
5.954155048	20.8031
5.974169015	111.464
5.994182981	121.808
6.014196948	220.868
6.034210914	70.3989
6.054224881	139.208
6.074238848	46.5344
6.094252814	136.033
6.114266781	73.9481
6.134280747	58.6344
6.154294714	119.855
6.17430868	118.366
6.194322647	84.3106
6.214336613	64.6794
6.23435058	69.9096
6.254364546	131.3
6.274378513	67.3672
6.29439248	64.6732
6.314406446	116.975
6.334420413	74.0041
6.354434379	110.82
6.374448346	157.632
6.394462312	105.424
6.414476279	63.3473
6.434490245	126.399
6.454504212	44.0275
6.474518178	58.2193
6.494532145	90.2725
6.514546112	32.2564
6.534560078	94.9853
6.554574045	64.1307
6.574588011	64.5379
6.594601978	108.947
6.614615944	92.8994
6.634629911	17.803
6.654643877	128.791
6.674657844	90.2113
6.694671811	32.9408
6.714685777	4.43463
6.734699744	155.466
6.75471371	64.956
6.774727677	143.693
6.794741643	232.582
6.81475561	38.0464
6.834769576	129.207
6.854783543	67.7232
6.874797509	20.7612
6.894811476	15.3235
6.914825443	74.1489
6.934839409	100.49
6.954853376	136.928
6.974867342	9.12011
6.994881309	41.4525
7.014895275	81.3134
7.034909242	83.7519
7.054923208	92.3188
7.074937175	67.2784
7.094951141	117.784
7.114965108	98.6238
7.134979075	75.0365
7.154993041	60.8527
7.175007008	158.812
7.195020974	2.93521
7.215034941	166.781
7.235048907	167.908
7.255062874	134.068
7.27507684	181.67
7.295090807	106.193
7.315104774	59.1093
7.33511874	83.8687
7.355132707	161.492
7.375146673	82.2894
7.39516064	47.4045
7.415174606	122.616
7.435188573	57.4043
7.455202539	99.7617
7.475216506	28.8032
7.495230472	169.34
7.515244439	43.3654
7.535258406	90.3696
7.555272372	79.0115
7.575286339	44.2582
7.595300305	68.1898
7.615314272	43.1789
7.635328238	112.631
7.655342205	92.7639
7.675356171	77.5978
7.695370138	61.3515
7.715384105	153.078
7.735398071	119.37
7.755412038	87.6274
7.775426004	112.527
7.795439971	92.427
7.815453937	68.1081
7.835467904	85.04
7.85548187	32.0719
7.875495837	24.3144
7.895509803	94.7464
7.91552377	171.492
7.935537737	57.6532
7.955551703	101.16
7.97556567	33.8612
7.995579636	56.6645
8.015593603	144.822
8.035607569	48.968
8.055621536	57.9368
8.075635502	88.3499
8.095649469	28.3697
8.115663435	37.674
8.135677402	53.9307
8.155691369	33.3168
8.175705335	119.32
8.195719302	74.4941
8.215733268	87.2906
8.235747235	69.1972
8.255761201	124.083
8.275775168	113.881
8.295789134	98.4181
8.315803101	63.8744
8.335817068	92.0056
8.355831034	121.498
8.375845001	82.6505
8.395858967	73.9404
8.415872934	139.257
8.4358869	36.633
8.455900867	72.7981
8.475914833	33.9815
8.4959288	23.9733
8.515942766	164.975
8.535956733	94.4888
8.5559707	109.228
8.575984666	130.641
8.595998633	53.3736
8.616012599	37.0484
8.636026566	141.104
8.656040532	92.6024
8.676054499	45.7318
8.696068465	129.945
8.716082432	69.838
8.736096398	65.937
8.756110365	55.8286
8.776124332	41.6805
8.796138298	57.9626
8.816152265	83.8214
8.836166231	124.426
8.856180198	88.6082
8.876194164	44.948
8.896208131	95.1405
8.916222097	84.1691
8.936236064	105.36
8.956250031	164.393
8.976263997	63.7799
8.996277964	63.5806
9.01629193	88.7127
9.036305897	71.9923
9.056319863	122.526
9.07633383	142.146
9.096347796	99.9774
9.116361763	53.5686
9.136375729	6.14599
9.156389696	143.642
9.176403663	133.693
9.196417629	195.953
9.216431596	38.4988
9.236445562	51.808
9.256459529	145.384
9.276473495	103.22
9.296487462	172.331
9.316501428	179.765
9.336515395	67.7886
9.356529361	100.826
9.376543328	66.3327
9.396557295	75.5633
9.416571261	58.4623
9.436585228	50.3265
9.456599194	82.4435
9.476613161	33.4007
9.496627127	79.9092
9.516641094	157.774
9.53665506	199.207
9.556669027	109.249
9.576682994	175.254
9.59669696	58.3043
9.616710927	106.587
9.636724893	56.0308
9.65673886	69.3757
9.676752826	109.103
9.696766793	139.712
9.716780759	79.4173
9.736794726	37.676
9.756808692	101.28
9.776822659	98.0729
9.796836626	53.7197
9.816850592	59.5274
9.836864559	71.5909
9.856878525	100.7
9.876892492	14.0927
9.896906458	123.595
9.916920425	124.467
9.936934391	80.4689
9.956948358	65.6798
9.976962325	158.17
9.996976291	102.816
10.01699026	110.782
10.03700422	83.0073
10.05701819	58.7807
10.07703216	114.904
10.09704612	49.0596
10.11706009	40.3263
10.13707406	33.455
10.15708802	192.351
10.17710199	77.2095
10.19711596	145.466
10.21712992	126.783
10.23714389	38.714
10.25715786	143.679
10.27717182	45.4014
10.29718579	122.59
10.31719976	85.8012
10.33721372	45.863
10.35722769	48.5744
10.37724166	103.414
10.39725562	66.064
10.41726959	11.3143
10.43728356	47.6342
10.45729752	66.3535
10.47731149	96.2549
10.49732545	62.6087
10.51733942	93.8122
10.53735339	137.428
10.55736735	59.366
10.57738132	66.3964
10.59739529	70.629
10.61740925	20.7041
10.63742322	150.483
10.65743719	11.1232
10.67745115	74.3423
10.69746512	55.7658
10.71747909	37.1765
10.73749305	54.6402
10.75750702	20.3486
10.77752099	37.1624
10.79753495	104.803
10.81754892	29.6665
10.83756289	64.1077
10.85757685	10.0446
10.87759082	74.1086
10.89760479	72.2197
10.91761875	108.194
10.93763272	51.5423
10.95764669	82.521
10.97766065	76.0973
10.99767462	83.6388
11.01768859	47.1472
11.03770255	12.8281
11.05771652	27.4402
11.07773048	107.45
11.09774445	100.285
11.11775842	108.728
11.13777238	127.752
11.15778635	51.975
11.17780032	71.3246
11.19781428	35.4898
11.21782825	4.78679
11.23784222	173.009
11.25785618	98.9763
11.27787015	104.352
11.29788412	29.6673
11.31789808	2.73399
11.33791205	101.96
11.35792602	94.5503
11.37793998	3.87079
11.39795395	56.4944
11.41796792	39.4683
11.43798188	27.5669
11.45799585	33.0227
11.47800982	13.2041
11.49802378	24.0781
11.51803775	95.4936
11.53805172	143.742
11.55806568	110.72
11.57807965	38.6544
11.59809361	79.1208
11.61810758	180.424
11.63812155	162.826
11.65813551	42.0157
11.67814948	74.213
11.69816345	106.508
11.71817741	35.9296
11.73819138	31.7638
11.75820535	92.4057
11.77821931	72.8254
11.79823328	28.0498
11.81824725	62.1898
11.83826121	25.6146
11.85827518	45.7485
11.87828915	133.588
11.89830311	140.707
11.91831708	81.6697
11.93833105	40.1154
11.95834501	90.4917
11.97835898	57.4728
11.99837295	65.1831
12.01838691	163.042
12.03840088	53.3727
12.05841485	98.5013
12.07842881	28.4097
12.09844278	111.751
12.11845675	65.9892
12.13847071	83.0245
12.15848468	85.6822
12.17849864	85.6348
12.19851261	49.8698
12.21852658	106.36
12.23854054	81.3854
12.25855451	112.061
12.27856848	29.6287
12.29858244	41.5472
12.31859641	112.691
12.33861038	74.8656
12.35862434	79.2115
12.37863831	75.7222
12.39865228	167.84
12.41866624	48.9701
12.43868021	147.624
12.45869418	132.49
12.47870814	66.3909
12.49872211	37.6976
12.51873608	94.4762
12.53875004	97.2016
12.55876401	90.479
12.57877798	125.308
12.59879194	102.632
12.61880591	71.0552
12.63881988	175.411
12.65883384	76.2859
12.67884781	8.8159
12.69886178	109.505
12.71887574	69.5688
12.73888971	63.8263
12.75890367	126.46
12.77891764	55.8437
12.79893161	4.24826
12.81894557	124.686
12.83895954	42.4993
12.85897351	187.812
12.87898747	51.9376
12.89900144	93.3341
12.91901541	74.1151
12.93902937	202.861
12.95904334	64.9378
12.97905731	90.9539
12.99907127	106.913
13.01908524	133.566
13.03909921	35.8947
13.05911317	74.4821
13.07912714	157.942
13.09914111	68.2078
13.11915507	139.158
13.13916904	51.2085
13.15918301	64.5293
13.17919697	5.70352
13.19921094	150.5
13.21922491	63.2956
13.23923887	122.347
13.25925284	149.795
13.27926681	59.3287
13.29928077	32.5658
13.31929474	81.526
13.3393087	86.1698
13.35932267	82.8191
13.37933664	95.694
13.3993506	89.4217
13.41936457	47.1456
13.43937854	181.167
13.4593925	46.7619
13.47940647	155.17
13.49942044	52.0297
13.5194344	38.7707
13.53944837	85.4793
13.55946234	89.237
13.5794763	128.493
13.59949027	10.6078
13.61950424	116.685
13.6395182	92.7743
13.65953217	38.3432
13.67954614	48.8274
13.6995601	80.3284
13.71957407	91.8963
13.73958804	40.87
13.759602	46.5356
13.77961597	44.4999
13.79962994	11.7922
13.8196439	67.7838
13.83965787	109.643
13.85967183	124.792
13.8796858	80.611
13.89969977	44.338
13.91971373	96.7632
13.9397277	150.691
13.95974167	67.4692
13.97975563	65.6076
13.9997696	65.6012
14.01978357	178.713
14.03979753	30.1158
14.0598115	58.7908
14.07982547	78.4413
14.09983943	66.0258
14.1198534	130.63
14.13986737	79.1722
14.15988133	145.381
14.1798953	90.5257
14.19990927	158.287
14.21992323	45.8679
14.2399372	227.291
14.25995117	168.476
14.27996513	78.0976
14.2999791	90.0848
14.31999307	80.6132
14.34000703	174.16
14.360021	128.788
14.38003497	85.3103
14.40004893	116.849
14.4200629	49.3197
14.44007686	91.3753
14.46009083	78.9763
14.4801048	90.2368
14.50011876	8.05938
14.52013273	180.876
14.5401467	53.9693
14.56016066	25.462
14.58017463	71.4159
14.6001886	90.7065
14.62020256	3.03204
14.64021653	95.0136
14.6602305	145.745
14.68024446	131.709
14.70025843	75.448
14.7202724	39.5509
14.74028636	75.2836
14.76030033	41.3499
14.7803143	135.424
14.80032826	47.6723
14.82034223	153.906
14.8403562	63.7825
14.86037016	26.0226
14.88038413	104.734
14.9003981	81.5108
14.92041206	93.028
14.94042603	125.78
14.96044	71.143
14.98045396	108.518
15.00046793	111.123
15.02048189	34.9656
15.04049586	94.5298
15.06050983	64.6906
15.08052379	164.459
15.10053776	77.8079
15.12055173	122.375
15.14056569	142.793
15.16057966	68.4526
15.18059363	98.2477
15.20060759	58.4646
15.22062156	103.63
15.24063553	39.8756
15.26064949	115.728
15.28066346	14.5528
15.30067743	88.7497
15.32069139	129.105
15.34070536	42.3311
15.36071933	29.0442
15.38073329	70.4475
15.40074726	158.495
15.42076123	44.6181
15.44077519	41.559
15.46078916	40.9854
15.48080313	90.7646
15.50081709	87.2805
15.52083106	40.8176
15.54084503	39.0392
15.56085899	104.062
15.58087296	28.1648
15.60088692	61.3666
15.62090089	97.2589
15.64091486	81.2512
15.66092882	94.6575
15.68094279	16.2837
15.70095676	102.634
15.72097072	66.1177
15.74098469	68.2072
15.76099866	39.6977
15.78101262	75.606
15.80102659	58.7012
15.82104056	167.965
15.84105452	38.8603
15.86106849	93.6675
15.88108246	109.605
15.90109642	69.5024
15.92111039	99.201
15.94112436	156.438
15.96113832	148.089
15.98115229	56.0687
16.00116626	91.3592
16.02118022	166.827
16.04119419	78.5032
16.06120816	75.7534
16.08122212	120.229
16.10123609	67.2735
16.12125005	67.3391
16.14126402	85.9433
16.16127799	42.3283
16.18129195	33.3748
16.20130592	78.1513
16.22131989	120.184
16.24133385	76.9708
16.26134782	144.409
16.28136179	56.3314
16.30137575	104.478
16.32138972	91.7439
16.34140369	40.464
16.36141765	14.1594
16.38143162	22.4274
16.40144559	70.1067
16.42145955	100.21
16.44147352	49.9638
16.46148749	143.87
16.48150145	148.103
16.50151542	191.777
16.52152939	158.082
16.54154335	80.2676
16.56155732	119.761
16.58157129	106.463
16.60158525	166.595
16.62159922	103.355
16.64161319	36.1467
16.66162715	49.3112
16.68164112	90.3233
16.70165508	44.8832
16.72166905	92.0452
16.74168302	11.1969
16.76169698	127.08
16.78171095	27.8621
16.80172492	160.093
16.82173888	141.232
16.84175285	78.4076
16.86176682	48.0408
16.88178078	62.955
16.90179475	61.817
16.92180872	114.818
16.94182268	18.6203
16.96183665	82.9343
16.98185062	46.6741
17.00186458	109.655
17.02187855	31.3764
17.04189252	33.96
17.06190648	48.3167
17.08192045	14.2676
17.10193442	138.15
17.12194838	128.051
17.14196235	90.2353
17.16197632	39.3024
17.18199028	20.8437
17.20200425	68.7711
17.22201822	86.9341
17.24203218	126.199
17.26204615	91.1124
17.28206011	146.963
17.30207408	41.0281
17.32208805	93.1209
17.34210201	22.2596
17.36211598	48.9411
17.38212995	25.1641
17.40214391	60.0638
17.42215788	53.5166
17.44217185	127.013
17.46218581	55.169
17.48219978	141.357
17.50221375	11.1008
17.52222771	36.5084
17.54224168	76.8433
17.56225565	73.0203
17.58226961	13.3932
17.60228358	167.874
17.62229755	44.6352
17.64231151	52.9691
17.66232548	59.6066
17.68233945	43.0514
17.70235341	78.8088
17.72236738	128.68
17.74238135	54.8163
17.76239531	98.55
17.78240928	144.584
17.80242325	55.9528
17.82243721	79.951
17.84245118	37.5184
17.86246514	121.674
17.88247911	86.9263
17.90249308	81.1215
17.92250704	52.2553
17.94252101	48.4484
17.96253498	147.775
17.98254894	77.7006
18.00256291	93.3958
18.02257688	107.692
18.04259084	81.6976
18.06260481	7.51047
18.08261878	42.2381
18.10263274	77.9671
18.12264671	155.237
18.14266068	16.6326
18.16267464	21.5862
18.18268861	62.0037
18.20270258	128.345
18.22271654	140.391
18.24273051	62.7073
18.26274448	74.2159
18.28275844	57.9951
18.30277241	61.0448
18.32278638	98.7323
18.34280034	105.239
18.36281431	141.438
18.38282827	36.8259
18.40284224	11.1766
18.42285621	49.5179
18.44287017	13.6702
18.46288414	55.7209
18.48289811	97.3638
18.50291207	23.8646
18.52292604	27.6976
18.54294001	61.11
18.56295397	120.402
18.58296794	111.543
18.60298191	27.8619
18.62299587	66.8113
18.64300984	83.2914
18.66302381	44.0823
18.68303777	73.847
18.70305174	109.037
18.72306571	45.4285
18.74307967	57.8727
18.76309364	32.2313
18.78310761	47.9624
18.80312157	104.142
18.82313554	102.414
18.84314951	155.749
18.86316347	122.452
18.88317744	14.9541
18.90319141	71.6703
18.92320537	133.4
18.94321934	57.399
18.9632333	57.1947
18.98324727	163.448
19.00326124	76.2038
19.0232752	71.0663
19.04328917	68.9724
19.06330314	35.0107
19.0833171	70.4895
19.10333107	56.007
19.12334504	77.4321
19.143359	70.8548
19.16337297	107.381
19.18338694	67.2442
19.2034009	20.061
19.22341487	160.511
19.24342884	38.9017
19.2634428	99.3271
19.28345677	92.2342
19.30347074	79.9963
19.3234847	78.1157
19.34349867	111.499
19.36351264	103.411
19.3835266	113.566
19.40354057	111.161
19.42355454	71.3381
19.4435685	112.341
19.46358247	58.7259
19.48359644	70.7424
19.5036104	74.7586
19.52362437	30.0856
19.54363833	40.4711
19.5636523	70.1597
19.58366627	98.4839
19.60368023	41.7825
19.6236942	56.0877
19.64370817	87.2836
19.66372213	110.494
19.6837361	48.6085
19.70375007	116.385
19.72376403	137.649
19.743778	65.6879
19.76379197	70.4049
19.78380593	40.7717
19.8038199	158.941
19.82383387	78.2245
19.84384783	41.517
19.8638618	18.5545
19.88387577	146.241
19.90388973	38.2669
19.9239037	123.869
19.94391767	79.9065
19.96393163	55.6783
19.9839456	53.1489
20.00395957	94.8719
20.02397353	43.0796
20.0439875	56.6633
20.06400147	28.4753
20.08401543	138.208
20.1040294	24.415
20.12404336	56.2891
20.14405733	73.8394
20.1640713	160.45
20.18408526	88.3011
20.20409923	41.2805
20.2241132	75.4161
20.24412716	106.863
20.26414113	108.436
20.2841551	175.903
20.30416906	46.1459
20.32418303	43.9918
20.344197	24.1748
20.36421096	44.8483
20.38422493	60.2698
20.4042389	37.4903
20.42425286	139.138
20.44426683	92.7079
20.4642808	78.6093
20.48429476	84.0925
20.50430873	187.484
20.5243227	91.0413
20.54433666	53.2746
20.56435063	89.097
20.5843646	47.594
20.60437856	184.813
20.62439253	48.4331
20.64440649	121.955
20.66442046	78.0139
20.68443443	87.1847
20.70444839	26.9846
20.72446236	41.1176
20.74447633	147.141
20.76449029	71.5789
20.78450426	68.8631
20.80451823	91.8011
20.82453219	65.2067
20.84454616	121.283
20.86456013	55.49
20.88457409	58.3298
20.90458806	77.2223
20.92460203	114.226
20.94461599	62.6306
20.96462996	92.8083
20.98464393	74.7132
21.00465789	75.105
21.02467186	30.2582
21.04468583	92.3198
21.06469979	208.597
21.08471376	81.0045
21.10472773	113.113
21.12474169	65.8868
21.14475566	96.5181
21.16476963	54.6927
21.18478359	139.5
21.20479756	97.6476
21.22481152	79.1391
21.24482549	133.268
21.26483946	118.631
21.28485342	82.8567
21.30486739	62.1942
21.32488136	38.6535
21.34489532	45.0173
21.36490929	94.038
21.38492326	79.7883
21.40493722	127.648
21.42495119	151.488
21.44496516	69.6417
21.46497912	91.1425
21.48499309	117.76
21.50500706	49.5113
21.52502102	31.4947
21.54503499	142.133
21.56504896	73.4251
21.58506292	31.0218
21.60507689	58.6504
21.62509086	77.7207
21.64510482	106.63
21.66511879	103.692
21.68513276	45.4605
21.70514672	30.7642
21.72516069	36.4945
21.74517466	117.915
21.76518862	74.9359
21.78520259	59.7568
21.80521655	74.7785
21.82523052	42.6114
21.84524449	12.1051
21.86525845	111.184
21.88527242	87.3261
21.90528639	29.2591
21.92530035	82.2807
21.94531432	51.1177
21.96532829	64.1055
21.98534225	139.602
22.00535622	57.1531
22.02537019	28.012
22.04538415	56.6257
22.06539812	11.6755
22.08541209	53.6269
22.10542605	44.5945
22.12544002	59.5507
22.14545399	186.915
22.16546795	198.445
22.18548192	136.158
22.20549589	57.8505
22.22550985	51.8918
22.24552382	25.6002
22.26553779	57.8374
22.28555175	39.7027
22.30556572	108.61
22.32557969	151.455
22.34559365	73.8556
22.36560762	101.035
22.38562158	24.7699
22.40563555	35.0473
22.42564952	122.067
22.44566348	154.815
22.46567745	28.7499
22.48569142	57.5206
22.50570538	54.1221
22.52571935	58.3261
22.54573332	135.954
22.56574728	45.3428
22.58576125	15.3147
22.60577522	55.2104
22.62578918	54.1747
22.64580315	93.4726
22.66581712	32.7926
22.68583108	66.757
22.70584505	53.8085
22.72585902	74.2184
22.74587298	67.7333
22.76588695	106.135
22.78590092	45.1803
22.80591488	115.545
22.82592885	94.3571
22.84594282	55.4492
22.86595678	142.562
22.88597075	41.5451
22.90598471	73.7121
22.92599868	60.9522
22.94601265	68.0766
22.96602661	98.9664
22.98604058	95.5442
23.00605455	66.0753
23.02606851	93.0851
23.04608248	121.09
23.06609645	62.4414
23.08611041	35.538
23.10612438	27.1438
23.12613835	41.6909
23.14615231	67.0894
23.16616628	61.5364
23.18618025	29.8616
23.20619421	61.3233
23.22620818	101.225
23.24622215	9.16574
23.26623611	69.9316
23.28625008	55.1765
23.30626405	88.9083
23.32627801	81.4782
23.34629198	51.825
23.36630595	71.8946
23.38631991	120.663
23.40633388	147.077
23.42634785	105.37
23.44636181	94.1152
23.46637578	70.7761
23.48638974	149.995
23.50640371	35.3541
23.52641768	69.8942
23.54643164	22.7435
23.56644561	55.8092
23.58645958	43.978
23.60647354	157.987
23.62648751	41.6491
23.64650148	103.919
23.66651544	20.5152
23.68652941	2.89152
23.70654338	132.447
23.72655734	84.4573
23.74657131	95.9161
23.76658528	165.806
23.78659924	35.5123
23.80661321	124.04
23.82662718	167.295
23.84664114	91.2268
23.86665511	133.141
23.88666908	128.997
23.90668304	37.3539
23.92669701	8.97865
23.94671098	180.667
23.96672494	71.9721
23.98673891	108.628
24.00675288	64.0778
24.02676684	127.039
24.04678081	37.6913
24.06679477	76.4919
24.08680874	23.3843
24.10682271	70.6308
24.12683667	94.2759
24.14685064	56.6012
24.16686461	60.1567
24.18687857	80.7906
24.20689254	49.0985
24.22690651	101.725
24.24692047	64.3924
24.26693444	16.1567
24.28694841	34.2341
24.30696237	64.7292
24.32697634	70.3469
24.34699031	114.113
24.36700427	68.1139
24.38701824	15.0996
24.40703221	25.8305
24.42704617	43.4547
24.44706014	67.5705
24.46707411	117.139
24.48708807	86.8268
24.50710204	91.2769
24.52711601	138.524
24.54712997	58.4013
24.56714394	63.0689
24.58715791	104.416
24.60717187	108.536
24.62718584	67.5465
24.6471998	20.3188
24.66721377	78.6552
24.68722774	67.7491
24.7072417	56.862
24.72725567	59.5576
24.74726964	57.1363
24.7672836	95.0011
24.78729757	55.0643
24.80731154	112.631
24.8273255	24.381
24.84733947	114.96
24.86735344	36.7678
24.8873674	67.4681
24.90738137	49.1164
24.92739534	56.702
24.9474093	71.0177
24.96742327	144.625
24.98743724	58.1619
25.0074512	158.805
25.02746517	69.3194
25.04747914	92.6891
25.0674931	83.6569
25.08750707	90.2227
25.10752104	60.0062
25.127535	22.6147
25.14754897	32.6512
25.16756293	158.953
25.1875769	85.5692
25.20759087	116.519
25.22760483	49.6466
25.2476188	202.185
25.26763277	133.4
25.28764673	40.5505
25.3076607	103.757
25.32767467	88.8933
25.34768863	37.0429
25.3677026	67.9615
25.38771657	90.591
25.40773053	78.294
25.4277445	13.2005
25.44775847	48.5658
25.46777243	119.506
25.4877864	69.2152
25.50780037	27.0049
25.52781433	62.5978
25.5478283	85.9096
25.56784227	69.2431
25.58785623	52.71
25.6078702	76.5351
25.62788417	115.946
25.64789813	45.5701
25.6679121	25.3615
25.68792607	110.292
25.70794003	96.2204
25.727954	73.7511
25.74796796	63.846
25.76798193	51.0284
25.7879959	61.0055
25.80800986	136.613
25.82802383	109.015
25.8480378	32.6983
25.86805176	150.665
25.88806573	95.2168
25.9080797	132.8
25.92809366	95.1078
25.94810763	43.8923
25.9681216	152.158
25.98813556	32.0548
26.00814953	47.4849
26.0281635	116.405
26.04817746	48.7322
26.06819143	139.503
26.0882054	48.9356
26.10821936	61.6682
26.12823333	136.074
26.1482473	101.684
26.16826126	17.1566
26.18827523	69.3609
26.2082892	91.0727
26.22830316	93.6889
26.24831713	143.222
26.2683311	44.2963
26.28834506	85.416
26.30835903	50.9264
26.32837299	15.0859
26.34838696	29.1874
26.36840093	130.911
26.38841489	61.5732
26.40842886	63.8194
26.42844283	76.2051
26.44845679	54.7979
26.46847076	107.008
26.48848473	67.5886
26.50849869	51.111
26.52851266	130.877
26.54852663	70.3686
26.56854059	80.1963
26.58855456	138.9
26.60856853	75.25
26.62858249	42.534
26.64859646	75.3754
26.66861043	61.9695
26.68862439	64.1639
26.70863836	121.176
26.72865233	25.2047
26.74866629	140.593
26.76868026	142.188
26.78869423	34.8967
26.80870819	57.3965
26.82872216	46.2138
26.84873613	85.8861
26.86875009	25.9344
26.88876406	127.06
26.90877802	96.99
26.92879199	109.489
26.94880596	111.976
26.96881992	110.915
26.98883389	61.8444
27.00884786	90.6125
27.02886182	121.651
27.04887579	122.249
27.06888976	124.347
27.08890372	151.919
27.10891769	180.251
27.12893166	85.4161
27.14894562	146.093
27.16895959	54.6314
27.18897356	98.4332
27.20898752	133.551
27.22900149	82.0891
27.24901546	58.3235
27.26902942	176.912
27.28904339	57.8363
27.30905736	58.4631
27.32907132	179.704
27.34908529	149.84
27.36909926	81.4429
27.38911322	109.374
27.40912719	140.369
27.42914115	15.9228
27.44915512	134.351
27.46916909	88.0936
27.48918305	151.581
27.50919702	146.576
27.52921099	222.343
27.54922495	68.3256
27.56923892	47.3891
27.58925289	119.497
27.60926685	60.1105
27.62928082	30.3566
27.64929479	105.163
27.66930875	61.7734
27.68932272	74.1503
27.70933669	59.4263
27.72935065	131.784
27.74936462	21.709
27.76937859	121.077
27.78939255	62.745
27.80940652	188.695
27.82942049	25.6549
27.84943445	118.071
27.86944842	116.866
27.88946239	92.937
27.90947635	25.1191
27.92949032	93.059
27.94950429	73.3325
27.96951825	108.754
27.98953222	91.2663
28.00954618	74.2589
28.02956015	84.2996
28.04957412	89.646
28.06958808	143.74
28.08960205	126.49
28.10961602	11.6953
28.12962998	68.1388
28.14964395	102.526
28.16965792	86.4509
28.18967188	40.1041
28.20968585	48.1784
28.22969982	124.516
28.24971378	7.35191
28.26972775	85.4898
28.28974172	21.6097
28.30975568	4.44114
28.32976965	49.3861
28.34978362	118.755
28.36979758	158.761
28.38981155	19.2562
28.40982552	60.3839
28.42983948	43.1422
28.44985345	112.76
28.46986742	30.2103
28.48988138	36.1106
28.50989535	72.2926
28.52990932	33.5101
28.54992328	146.589
28.56993725	175.963
28.58995121	65.7998
28.60996518	98.4151
28.62997915	150.304
28.64999311	33.6567
28.67000708	24.347
28.69002105	25.8552
28.71003501	83.2986
28.73004898	26.0103
28.75006295	54.3578
28.77007691	94.9458
28.79009088	184.05
28.81010485	102.585
28.83011881	97.4574
28.85013278	37.7757
28.87014675	107.948
28.89016071	101.803
28.91017468	11.5716
28.93018865	115.642
28.95020261	82.1258
28.97021658	94.6979
28.99023055	153.249
29.01024451	70.935
29.03025848	16.331
29.05027245	51.5558
29.07028641	109.92
29.09030038	109.491
29.11031435	119.478
29.13032831	74.6326
29.15034228	37.6057
29.17035624	28.4688
29.19037021	46.052
29.21038418	63.2804
29.23039814	114.345
29.25041211	103.128
29.27042608	60.0847
29.29044004	73.0966
29.31045401	62.6426
29.33046798	77.6701
29.35048194	56.4901
29.37049591	45.8117
29.39050988	52.4103
29.41052384	78.6448
29.43053781	62.9074
29.45055178	72.1692
29.47056574	68.4503
29.49057971	128.797
29.51059368	162.132
29.53060764	47.931
29.55062161	75.7305
29.57063558	85.1016
29.59064954	113.933
29.61066351	67.169
29.63067748	18.1589
29.65069144	64.4785
29.67070541	143.34
29.69071937	118.002
29.71073334	81.5668
29.73074731	97.0521
29.75076127	151.886
29.77077524	75.5906
29.79078921	107.343
29.81080317	52.8905
29.83081714	61.5628
29.85083111	108.802
29.87084507	65.4528
29.89085904	38.9991
29.91087301	87.7299
29.93088697	96.6708
29.95090094	56.4573
29.97091491	78.7224
29.99092887	224.757
30.01094284	89.6794
30.03095681	60.0387
30.05097077	107.385
30.07098474	127.982
30.09099871	56.6976
30.11101267	96.4144
30.13102664	15.5972
30.15104061	53.8529
30.17105457	104.619
30.19106854	118.16
30.21108251	178.923
30.23109647	110.478
30.25111044	122.249
30.2711244	47.3033
30.29113837	74.4231
30.31115234	42.2372
30.3311663	81.2824
30.35118027	111.847
30.37119424	70.238
30.3912082	120.908
30.41122217	109.472
30.43123614	46.7519
30.4512501	30.9784
30.47126407	88.8357
30.49127804	52.9923
30.511292	60.5114
30.53130597	127.294
30.55131994	53.024
30.5713339	146.53
30.59134787	114.137
30.61136184	118.885
30.6313758	91.8256
30.65138977	39.0339
30.67140374	92.2315
30.6914177	87.4438
30.71143167	153.333
30.73144564	55.2287
30.7514596	71.3763
30.77147357	109.312
30.79148754	137.023
30.8115015	25.0243
30.83151547	36.0999
30.85152943	79.2639
30.8715434	49.9809
30.89155737	71.025
30.91157133	44.3901
30.9315853	81.6673
30.95159927	91.267
30.97161323	124.627
30.9916272	104.687
31.01164117	49.1362
31.03165513	187.107
31.0516691	138.342
31.07168307	43.2697
31.09169703	33.5215
31.111711	42.8464
31.13172497	112.756
31.15173893	31.4344
31.1717529	72.9865
31.19176687	68.883
31.21178083	54.0974
31.2317948	127.002
31.25180877	62.2717
31.27182273	57.2364
31.2918367	54.8818
31.31185067	77.8425
31.33186463	142.176
31.3518786	95.4636
31.37189257	130.327
31.39190653	103.064
31.4119205	46.631
31.43193446	174.101
31.45194843	169.943
31.4719624	62.5253
31.49197636	178.095
31.51199033	69.3294
31.5320043	102.054
31.55201826	48.3716
31.57203223	17.5701
31.5920462	100.593
31.61206016	113.989
31.63207413	80.5072
31.6520881	16.4272
31.67210206	111.455
31.69211603	58.295
31.71213	80.1513
31.73214396	63.9764
31.75215793	88.1389
31.7721719	84.3086
31.79218586	18.9258
31.81219983	108.098
31.8322138	49.0247
31.85222776	12.4934
31.87224173	71.7629
31.8922557	83.5767
31.91226966	151.11
31.93228363	28.5915
31.95229759	110.345
31.97231156	72.8323
31.99232553	94.8412
32.01233949	65.8032
32.03235346	150.813
32.05236743	67.4095
32.07238139	59.7086
32.09239536	151.378
32.11240933	111.812
32.13242329	64.3876
32.15243726	35.5162
32.17245123	72.7549
32.19246519	13.953
32.21247916	48.8451
32.23249313	58.445
32.25250709	164.362
32.27252106	58.7687
32.29253503	58.2292
32.31254899	185.872
32.33256296	42.119
32.35257693	48.7397
32.37259089	79.002
32.39260486	96.2522
32.41261883	62.5583
32.43263279	110.263
32.45264676	192.132
32.47266073	49.2349
32.49267469	75.0726
32.51268866	53.4933
32.53270262	67.9577
32.55271659	79.2282
32.57273056	67.2266
32.59274452	53.9079
32.61275849	80.505
32.63277246	154.798
32.65278642	157.667
32.67280039	117.577
32.69281436	175.858
32.71282832	56.1396
32.73284229	88.4733
32.75285626	34.5856
32.77287022	85.8938
32.79288419	105.945
32.81289816	76.2732
32.83291212	39.5986
32.85292609	161.985
32.87294006	123.305
32.89295402	51.1858
32.91296799	107.415
32.93298196	53.5716
32.95299592	70.8706
32.97300989	25.052
32.99302386	93.478
33.01303782	45.7283
33.03305179	135.187
33.05306576	76.2331
33.07307972	185.485
33.09309369	85.3236
33.11310765	43.0697
33.13312162	148.886
33.15313559	108.722
33.17314955	137.114
33.19316352	87.1356
33.21317749	106.386
33.23319145	103.297
33.25320542	66.6543
33.27321939	37.7842
33.29323335	137.69
33.31324732	120.123
33.33326129	88.9047
33.35327525	42.9941
33.37328922	28.6505
33.39330319	110.851
33.41331715	35.6675
33.43333112	82.8589
33.45334509	84.964
33.47335905	104.851
33.49337302	196.048
33.51338699	41.9731
33.53340095	45.6754
33.55341492	136.286
33.57342889	80.0404
33.59344285	114.513
33.61345682	47.9567
33.63347079	151.529
33.65348475	58.2247
33.67349872	59.8461
33.69351268	72.8877
33.71352665	67.3386
33.73354062	80.1362
33.75355458	37.1788
33.77356855	73.947
33.79358252	69.742
33.81359648	83.4316
33.83361045	90.4601
33.85362442	77.9951
33.87363838	70.4433
33.89365235	59.1678
33.91366632	162.139
33.93368028	116.394
33.95369425	47.6364
33.97370822	83.4154
33.99372218	142.904
34.01373615	48.4542
34.03375012	126.368
34.05376408	45.3848
34.07377805	104.926
34.09379202	81.389
34.11380598	30.9607
34.13381995	77.658
34.15383392	112.848
34.17384788	122.368
34.19386185	96.5204
34.21387581	53.7855
34.23388978	73.2614
34.25390375	102.052
34.27391771	120.969
34.29393168	15.2133
34.31394565	50.568
34.33395961	85.2532
34.35397358	88.3203
34.37398755	43.8665
34.39400151	94.1204
34.41401548	112.817
34.43402945	153.16
34.45404341	178.231
34.47405738	125.192
34.49407135	112.033
34.51408531	89.4348
34.53409928	91.8914
34.55411325	13.5199
34.57412721	93.5576
34.59414118	59.5159
34.61415515	1.56339
34.63416911	180.734
34.65418308	101.757
34.67419705	48.9316
34.69421101	28.6677
34.71422498	21.8061
34.73423895	49.2096
34.75425291	20.6514
34.77426688	83.0037
34.79428084	17.4119
34.81429481	55.2616
34.83430878	43.2104
34.85432274	111.142
34.87433671	80.2351
34.89435068	69.2512
34.91436464	127.25
34.93437861	65.2885
34.95439258	2.24728
34.97440654	42.9344
34.99442051	97.1547
35.01443448	96.5569
35.03444844	68.2462
35.05446241	106.895
35.07447638	37.4422
35.09449034	127.109
35.11450431	16.0713
35.13451828	99.2324
35.15453224	42.2213
35.17454621	105.244
35.19456018	110.949
35.21457414	110.365
35.23458811	32.0917
35.25460208	60.4611
35.27461604	75.4621
35.29463001	44.116
35.31464398	109.451
35.33465794	44.9651
35.35467191	57.1906
35.37468587	117.513
35.39469984	65.7849
35.41471381	105.155
35.43472777	74.8486
35.45474174	113.203
35.47475571	105.359
35.49476967	59.9952
35.51478364	114.31
35.53479761	78.1292
35.55481157	46.1446
35.57482554	56.9785
35.59483951	99.2699
35.61485347	17.3538
35.63486744	150.703
35.65488141	65.3029
35.67489537	81.5865
35.69490934	97.7891
35.71492331	96.2408
35.73493727	48.5911
35.75495124	94.6111
35.77496521	113.293
35.79497917	30.3489
35.81499314	51.3963
35.83500711	38.3941
35.85502107	43.5948
35.87503504	40.3862
35.89504901	47.5613
35.91506297	23.2914
35.93507694	135.975
35.9550909	82.3889
35.97510487	121.738
35.99511884	65.35
36.0151328	44.5566
36.03514677	113.422
36.05516074	102.481
36.0751747	121.948
36.09518867	58.9835
36.11520264	79.1345
36.1352166	69.2828
36.15523057	18.4628
36.17524454	156.74
36.1952585	16.7996
36.21527247	73.9148
36.23528644	120.897
36.2553004	65.8838
36.27531437	22.8025
36.29532834	144.788
36.3153423	38.2645
36.33535627	69.4888
36.35537024	58.4017
36.3753842	7.69631
36.39539817	151.162
36.41541214	150.339
36.4354261	30.7181
36.45544007	120.738
36.47545403	120.332
36.495468	46.9681
36.51548197	100.374
36.53549593	165.541
36.5555099	132.876
36.57552387	140.458
36.59553783	62.7971
36.6155518	189.036
36.63556577	125.529
36.65557973	99.2404
36.6755937	51.0247
36.69560767	56.4677
36.71562163	76.8122
36.7356356	63.9387
36.75564957	202.81
36.77566353	70.3209
36.7956775	53.3198
36.81569147	81.3517
36.83570543	72.1453
36.8557194	182.857
36.87573337	158.185
36.89574733	70.6233
36.9157613	153.614
36.93577527	172.843
36.95578923	80.8234
36.9758032	95.2055
36.99581717	132.987
37.01583113	143.853
37.0358451	36.8479
37.05585906	81.1154
37.07587303	74.7618
37.095887	67.4401
37.11590096	19.7721
37.13591493	95.605
37.1559289	139.395
37.17594286	98.3413
37.19595683	74.6974
37.2159708	56.2441
37.23598476	122.252
37.25599873	110.751
37.2760127	32.7363
37.29602666	91.5782
37.31604063	39.5649
37.3360546	91.1472
37.35606856	13.3463
37.37608253	98.986
37.3960965	79.8503
37.41611046	119.047
37.43612443	114.85
37.4561384	40.2136
37.47615236	58.6533
37.49616633	92.8674
37.5161803	45.5861
37.53619426	50.1541
37.55620823	75.2672
37.5762222	99.7
37.59623616	66.0866
37.61625013	65.6958
37.63626409	136.196
37.65627806	36.4361
37.67629203	33.4741
37.69630599	104.746
37.71631996	43.8738
37.73633393	102.246
37.75634789	146.925
37.77636186	104.428
37.79637583	183.677
37.81638979	105.394
37.83640376	67.3052
37.85641773	72.6374
37.87643169	154.278
37.89644566	93.0627
37.91645963	9.77747
37.93647359	131.39
37.95648756	128.485
37.97650153	33.8787
37.99651549	104.898
38.01652946	68.0388
38.03654343	81.0031
38.05655739	86.502
38.07657136	104.59
38.09658533	119.186
38.11659929	104.491
38.13661326	16.0065
38.15662723	150.393
38.17664119	70.3707
38.19665516	106.446
38.21666912	137.388
38.23668309	87.9936
38.25669706	77.9801
38.27671102	135.737
38.29672499	36.3874
38.31673896	101.88
38.33675292	99.8493
38.35676689	62.0264
38.37678086	50.5869
38.39679482	101.075
38.41680879	128.988
38.43682276	44.4967
38.45683672	114.062
38.47685069	97.382
38.49686466	109.336
38.51687862	174.315
38.53689259	111.231
38.55690656	139.6
38.57692052	112.526
38.59693449	82.8577
38.61694846	119.221
38.63696242	27.3458
38.65697639	156.371
38.67699036	111.121
38.69700432	161.494
38.71701829	107.818
38.73703225	66.7437
38.75704622	87.6612
38.77706019	65.9411
38.79707415	49.7681
38.81708812	58.7063
38.83710209	32.2034
38.85711605	28.9878
38.87713002	120.367
38.89714399	69.2638
38.91715795	70.001
38.93717192	110.408
38.95718589	95.4356
38.97719985	39.8133
38.99721382	38.8673
39.01722779	49.3972
39.03724175	45.9395
39.05725572	135.142
39.07726969	67.6684
39.09728365	109.263
39.11729762	150.457
39.13731159	128.176
39.15732555	96.4948
39.17733952	104.805
39.19735349	46.9629
39.21736745	186.422
39.23738142	66.0694
39.25739539	90.1756
39.27740935	132.717
39.29742332	69.7694
39.31743728	119.461
39.33745125	11.1595
39.35746522	84.1069
39.37747918	116.932
39.39749315	19.7713
39.41750712	97.9139
39.43752108	33.9343
39.45753505	71.8989
39.47754902	62.94
39.49756298	72.232
39.51757695	30.3132
39.53759092	167.319
39.55760488	57.9669
39.57761885	135.155
39.59763282	60.9832
39.61764678	158.186
39.63766075	121.942
39.65767472	44.7915
39.67768868	29.431
39.69770265	78.7573
39.71771662	64.0715
39.73773058	94.1952
39.75774455	54.8916
39.77775852	49.7352
39.79777248	49.4455
39.81778645	65.3296
39.83780042	138.852
39.85781438	205.776
39.87782835	63.8325
39.89784231	40.3105
39.91785628	30.6535
39.93787025	142.644
39.95788421	76.1904
39.97789818	71.689
39.99791215	143.371
40.01792611	77.3995
40.03794008	77.5577
40.05795405	115.517
40.07796801	172.353
40.09798198	60.6739
40.11799595	84.9147
40.13800991	134.764
40.15802388	170.175
40.17803785	87.1532
40.19805181	95.4393
40.21806578	62.2012
40.23807975	7.34581
40.25809371	136.972
40.27810768	67.8857
40.29812165	88.3167
40.31813561	67.0485
40.33814958	62.3403
40.35816355	124.62
40.37817751	73.6809
40.39819148	152.905
40.41820545	180.976
40.43821941	137.657
40.45823338	79.5312
40.47824734	75.0582
40.49826131	75.8991
40.51827528	49.0862
40.53828924	18.806
40.55830321	74.8932
40.57831718	110.786
40.59833114	59.7029
40.61834511	87.8363
40.63835908	145.965
40.65837304	43.7418
40.67838701	48.2536
40.69840098	44.925
40.71841494	123.165
40.73842891	75.9514
40.75844288	97.1557
40.77845684	11.0172
40.79847081	66.8946
40.81848478	46.8976
40.83849874	57.4089
40.85851271	52.6544
40.87852668	20.3328
40.89854064	107.354
40.91855461	48.1759
40.93856858	56.5685
40.95858254	92.3263
40.97859651	90.835
40.99861047	7.22582
41.01862444	56.15
41.03863841	114.526
41.05865237	46.7129
41.07866634	32.5949
41.09868031	77.3079
41.11869427	46.8495
41.13870824	200.411
41.15872221	115.357
41.17873617	72.0771
41.19875014	29.5588
41.21876411	17.94
41.23877807	29.4223
41.25879204	37.3087
41.27880601	54.0812
41.29881997	86.9455
41.31883394	103.349
41.33884791	112.202
41.35886187	76.2737
41.37887584	35.5513
41.39888981	162.842
41.41890377	42.5282
41.43891774	13.7932
41.45893171	57.8118
41.47894567	110.699
41.49895964	46.0983
41.51897361	34.5833
41.53898757	71.3404
41.55900154	52.555
41.5790155	36.9994
41.59902947	46.5346
41.61904344	85.1905
41.6390574	75.9699
41.65907137	68.2031
41.67908534	110.395
41.6990993	74.8634
41.71911327	133.333
41.73912724	70.7181
41.7591412	101.524
41.77915517	64.2267
41.79916914	56.4419
41.8191831	105.661
41.83919707	103.471
41.85921104	70.3778
41.879225	63.8633
41.89923897	99.631
41.91925294	90.8029
41.9392669	6.93928
41.95928087	150.193
41.97929484	101.157
41.9993088	80.9716
42.01932277	88.7785
42.03933674	113.743
42.0593507	116.5
42.07936467	78.861
42.09937864	89.782
42.1193926	101.45
42.13940657	21.2375
42.15942053	90.2893
42.1794345	130.266
42.19944847	50.0661
42.21946243	32.9729
42.2394764	45.1716
42.25949037	88.3069
42.27950433	66.2143
42.2995183	155.983
42.31953227	10.2143
42.33954623	47.594
42.3595602	282.178
42.37957417	64.3526
42.39958813	207.273
42.4196021	150.459
42.43961607	83.4397
42.45963003	132.997
42.479644	112.795
42.49965797	94.1875
42.51967193	28.3484
42.5396859	113.326
42.55969987	53.0339
42.57971383	83.2205
42.5997278	24.2734
42.61974177	57.066
42.63975573	92.2725
42.6597697	71.1358
42.67978366	95.8636
42.69979763	157.513
42.7198116	99.8534
42.73982556	68.3916
42.75983953	84.8832
42.7798535	32.4428
42.79986746	86.3615
42.81988143	119.64
42.8398954	40.33
42.85990936	59.5671
42.87992333	71.3162
42.8999373	197.988
42.91995126	125.508
42.93996523	39.547
42.9599792	17.182
42.97999316	62.4926
43.00000713	67.1527
43.0200211	81.7121
43.04003506	108.047
43.06004903	34.3875
43.080063	103.759
43.10007696	64.4455
43.12009093	81.0559
43.1401049	173.875
43.16011886	107.949
43.18013283	78.5477
43.2001468	89.9221
43.22016076	34.1056
43.24017473	107.694
43.26018869	100.683
43.28020266	12.8894
43.30021663	116.687
43.32023059	50.0583
43.34024456	170.78
43.36025853	11.1891
43.38027249	90.8579
43.40028646	161.309
43.42030043	96.8799
43.44031439	91.0038
43.46032836	78.7061
43.48034233	117.051
43.50035629	94.3075
43.52037026	43.2643
43.54038423	75.8609
43.56039819	126.21
43.58041216	78.7544
43.60042613	117.177
43.62044009	51.1188
43.64045406	121.029
43.66046803	91.2503
43.68048199	100.927
43.70049596	21.3717
43.72050993	117.743
43.74052389	131.681
43.76053786	133.317
43.78055183	48.2756
43.80056579	178.279
43.82057976	52.9755
43.84059372	138.579
43.86060769	26.207
43.88062166	69.5358
43.90063562	132.162
43.92064959	130.6
43.94066356	136.088
43.96067752	63.6914
43.98069149	86.9371
44.00070546	15.0666
44.02071942	65.0482
44.04073339	28.44
44.06074736	56.1761
44.08076132	84.9723
44.10077529	149.833
44.12078926	28.4535
44.14080322	65.3445
44.16081719	34.6818
44.18083116	81.5579
44.20084512	49.3321
44.22085909	86.4854
44.24087306	62.1518
44.26088702	43.6956
44.28090099	58.7175
44.30091496	68.5255
44.32092892	52.3247
44.34094289	73.8652
44.36095686	160.017
44.38097082	188.206
44.40098479	53.9911
44.42099875	77.0861
44.44101272	122.527
44.46102669	52.3002
44.48104065	84.3354
44.50105462	21.0218
44.52106859	91.4413
44.54108255	34.5755
44.56109652	59.3275
44.58111049	49.9165
44.60112445	114.298
44.62113842	52.4845
44.64115239	49.2817
44.66116635	71.4009
44.68118032	51.539
44.70119429	148.579
44.72120825	115.231
44.74122222	79.2764
44.76123619	138.365
44.78125015	112.474
44.80126412	79.4345
44.82127809	97.1168
44.84129205	60.4206
44.86130602	46.8942
44.88131999	18.0178
44.90133395	44.0464
44.92134792	75.4006
44.94136188	94.5333
44.96137585	145.341
44.98138982	138.611
45.00140378	15.2597
45.02141775	36.2062
45.04143172	83.0838
45.06144568	42.1341
45.08145965	27.639
45.10147362	63.4319
45.12148758	35.6851
45.14150155	44.7821
45.16151552	168.494
45.18152948	85.8614
45.20154345	48.7938
45.22155742	44.4007
45.24157138	125.368
45.26158535	124.105
45.28159932	108.062
45.30161328	55.8818
45.32162725	40.4725
45.34164122	59.9717
45.36165518	134.137
45.38166915	119.917
45.40168312	64.9781
45.42169708	13.1043
45.44171105	40.9496
45.46172502	33.3907
45.48173898	123.151
45.50175295	13.5421
45.52176691	131.184
45.54178088	45.0255
45.56179485	51.5378
45.58180881	59.4661
45.60182278	56.6421
45.62183675	70.4946
45.64185071	30.8843
45.66186468	97.3007
45.68187865	122.809
45.70189261	49.7914
45.72190658	55.5372
45.74192055	82.1761
45.76193451	34.3921
45.78194848	82.4985
45.80196245	52.2969
45.82197641	91.2872
45.84199038	51.802
45.86200435	98.7176
45.88201831	36.9013
45.90203228	39.6172
45.92204625	40.7376
45.94206021	98.4084
45.96207418	30.1791
45.98208815	48.6983
46.00210211	122.061
46.02211608	98.4546
46.04213005	194.452
46.06214401	91.1989
46.08215798	151.376
46.10217194	58.9636
46.12218591	74.5469
46.14219988	203.908
46.16221384	131.164
46.18222781	93.65
46.20224178	64.989
46.22225574	129.741
46.24226971	65.9488
46.26228368	103.685
46.28229764	69.3431
46.30231161	92.6496
46.32232558	68.1462
46.34233954	22.47
46.36235351	86.3077
46.38236748	128.222
46.40238144	142.377
46.42239541	51.1471
46.44240938	97.15
46.46242334	20.0818
46.48243731	6.46587
46.50245128	122.584
46.52246524	38.2816
46.54247921	87.0511
46.56249318	166.502
46.58250714	62.6479
46.60252111	131.59
46.62253508	22.6799
46.64254904	69.4154
46.66256301	30.755
46.68257697	59.3334
46.70259094	83.3184
46.72260491	55.5032
46.74261887	73.8644
46.76263284	57.439
46.78264681	31.7681
46.80266077	143.806
46.82267474	45.2408
46.84268871	68.857
46.86270267	62.751
46.88271664	98.5321
46.90273061	42.1736
46.92274457	214.259
46.94275854	61.4775
46.96277251	46.6624
46.98278647	54.272
47.00280044	34.7701
47.02281441	32.9182
47.04282837	67.2363
47.06284234	54.2075
47.08285631	65.0334
47.10287027	100.462
47.12288424	103.907
47.14289821	65.686
47.16291217	184.32
47.18292614	116.743
47.2029401	163.719
47.22295407	102.513
47.24296804	121.372
47.262982	62.8406
47.28299597	13.8629
47.30300994	150.045
47.3230239	92.4806
47.34303787	69.1916
47.36305184	170.827
47.3830658	67.9728
47.40307977	77.8146
47.42309374	85.4398
47.4431077	115.352
47.46312167	84.2587
47.48313564	96.7358
47.5031496	66.4589
47.52316357	218.432
47.54317754	164.522
47.5631915	49.0881
47.58320547	105.202
47.60321944	102.066
47.6232334	42.8287
47.64324737	139.378
47.66326134	158.412
47.6832753	46.8421
47.70328927	63.5084
47.72330324	28.7676
47.7433172	105.82
47.76333117	80.3538
47.78334513	67.4261
47.8033591	136.747
47.82337307	101.632
47.84338703	215.855
47.863401	73.1264
47.88341497	25.7482
47.90342893	56.6501
47.9234429	81.1805
47.94345687	25.3809
47.96347083	102.759
47.9834848	27.5918
48.00349877	72.6177
48.02351273	93.7267
48.0435267	107.54
48.06354067	163.307
48.08355463	47.5655
48.1035686	130.702
48.12358257	156.022
48.14359653	129.531
48.1636105	67.3385
48.18362447	26.5442
48.20363843	67.812
48.2236524	169.126
48.24366637	59.1273
48.26368033	172.389
48.2836943	85.7804
48.30370827	46.1876
48.32372223	112.173
48.3437362	165.46
48.36375016	86.5517
48.38376413	103.743
48.4037781	66.2364
48.42379206	76.6664
48.44380603	39.3642
48.46382	21.1385
48.48383396	123.675
48.50384793	109.615
48.5238619	42.6442
48.54387586	73.9918
48.56388983	48.0061
48.5839038	68.1347
48.60391776	129.196
48.62393173	103.03
48.6439457	26.0692
48.66395966	156.576
48.68397363	77.0009
48.7039876	19.8719
48.72400156	45.8634
48.74401553	121.672
48.7640295	96.1261
48.78404346	41.2145
48.80405743	102.522
48.8240714	87.0825
48.84408536	130.248
48.86409933	166.256
48.8841133	147.052
48.90412726	35.1143
48.92414123	131.651
48.94415519	99.8014
48.96416916	29.8311
48.98418313	83.9417
49.00419709	47.741
49.02421106	25.5438
49.04422503	133.706
49.06423899	22.0791
49.08425296	116.395
49.10426693	206.675
49.12428089	52.3635
49.14429486	9.98922
49.16430883	87.0956
49.18432279	68.8326
49.20433676	69.9262
49.22435073	158.948
49.24436469	154.635
49.26437866	81.0663
49.28439263	137.772
49.30440659	59.7703
49.32442056	75.1675
49.34443453	137.823
49.36444849	124.193
49.38446246	80.0157
49.40447643	47.6154
49.42449039	101.538
49.44450436	87.1627
49.46451832	119.753
49.48453229	99.6078
49.50454626	116.95
49.52456022	116.685
49.54457419	127.887
49.56458816	132.625
49.58460212	86.7755
49.60461609	44.9883
49.62463006	168.461
49.64464402	100.58
49.66465799	65.0288
49.68467196	104.483
49.70468592	71.8665
49.72469989	45.873
49.74471386	76.349
49.76472782	51.8077
49.78474179	31.6106
49.80475576	61.7313
49.82476972	83.9384
49.84478369	131.078
49.86479766	20.1352
49.88481162	46.2201
49.90482559	102.572
49.92483956	125.754
49.94485352	105.427
49.96486749	103.684
49.98488146	41.1687
50.00489542	173.317
50.02490939	149.073
50.04492335	52.0782
50.06493732	157.137
50.08495129	42.6023
50.10496525	61.7709
50.12497922	108.395
50.14499319	70.4178
50.16500715	184.373
50.18502112	54.8892
50.20503509	136.671
50.22504905	46.6197
50.24506302	126.948
50.26507699	78.8692
50.28509095	85.6847
50.30510492	58.3404
50.32511889	55.6424
50.34513285	40.1557
50.36514682	58.474
50.38516079	34.9028
50.40517475	20.743
50.42518872	125.246
50.44520269	23.0979
50.46521665	22.7555
50.48523062	115.149
50.50524459	77.9792
50.52525855	83.2086
50.54527252	82.3347
50.56528649	44.7764
50.58530045	141.882
50.60531442	142.779
50.62532838	55.3913
50.64534235	145.556
50.66535632	56.7015
50.68537028	134.47
50.70538425	142.298
50.72539822	84.9938
50.74541218	121.44
50.76542615	104.168
50.78544012	13.619
50.80545408	138.2
50.82546805	49.3575
50.84548202	123.213
50.86549598	138.551
50.88550995	93.8318
50.90552392	222.785
50.92553788	72.8506
50.94555185	150.464
50.96556582	75.7648
50.98557978	52.9002
51.00559375	130.306
51.02560772	83.9857
51.04562168	87.1478
51.06563565	164.937
51.08564962	98.4485
51.10566358	38.8456
51.12567755	47.6998
51.14569152	57.7224
51.16570548	65.5107
51.18571945	94.8069
51.20573341	100.112
51.22574738	29.2157
51.24576135	84.5164
51.26577531	91.3352
51.28578928	89.7705
51.30580325	24.9731
51.32581721	49.7276
51.34583118	119.689
51.36584515	182.55
51.38585911	40.9763
51.40587308	147.941
51.42588705	112.89
51.44590101	120.934
51.46591498	73.2317
51.48592895	78.6184
51.50594291	87.8006
51.52595688	148.789
51.54597085	114.311
51.56598481	80.5704
51.58599878	52.4132
51.60601275	103.553
51.62602671	98.0501
51.64604068	41.532
51.66605465	138.459
51.68606861	45.4432
51.70608258	170.69
51.72609654	92.1858
51.74611051	68.499
51.76612448	130.622
51.78613844	118.785
51.80615241	116.373
51.82616638	65.519
51.84618034	92.8197
51.86619431	115.369
51.88620828	129.455
51.90622224	29.6016
51.92623621	69.6395
51.94625018	86.9019
51.96626414	101.78
51.98627811	11.5245
52.00629208	49.1107
52.02630604	67.4851
52.04632001	42.87
52.06633398	40.89
52.08634794	91.5735
52.10636191	53.1344
52.12637588	53.3305
52.14638984	99.1952
52.16640381	153.598
52.18641778	54.7925
52.20643174	4.90099
52.22644571	107.404
52.24645968	37.7821
52.26647364	116.023
52.28648761	31.2971
52.30650157	60.5313
52.32651554	50.9144
52.34652951	142.249
52.36654347	33.3767
52.38655744	95.3531
52.40657141	39.9474
52.42658537	104.151
52.44659934	138.105
52.46661331	72.619
52.48662727	25.0773
52.50664124	18.3968
52.52665521	32.6408
52.54666917	40.5214
52.56668314	83.9431
52.58669711	172.328
52.60671107	158.74
52.62672504	233.481
52.64673901	93.5366
52.66675297	121.843
52.68676694	110.248
52.70678091	44.8157
52.72679487	75.2
52.74680884	27.9134
52.76682281	131.686
52.78683677	86.8597
52.80685074	105.959
52.82686471	113.404
52.84687867	42.6566
52.86689264	118.916
52.8869066	78.512
52.90692057	122.622
52.92693454	53.1355
52.9469485	124.117
52.96696247	46.9698
52.98697644	101.501
53.0069904	19.1367
53.02700437	52.99
53.04701834	88.4698
53.0670323	27.9063
53.08704627	142.318
53.10706024	39.9727
53.1270742	102.8
53.14708817	110.684
53.16710214	201.612
53.1871161	132.283
53.20713007	24.8218
53.22714404	128.507
53.247158	123.984
53.26717197	104.399
53.28718594	33.6832
53.3071999	26.9623
53.32721387	152.181
53.34722784	89.9705
53.3672418	33.2035
53.38725577	129.199
53.40726974	32.5523
53.4272837	34.3825
53.44729767	19.4918
53.46731163	55.3007
53.4873256	63.2624
53.50733957	39.0021
53.52735353	95.4346
53.5473675	67.7071
53.56738147	34.7345
53.58739543	140.352
53.6074094	54.4019
53.62742337	29.282
53.64743733	97.2368
53.6674513	53.4591
53.68746527	57.7844
53.70747923	63.9139
53.7274932	105.23
53.74750717	123.258
53.76752113	163.454
53.7875351	116.77
53.80754907	69.8684
53.82756303	114.703
53.847577	105.758
53.86759097	131.494
53.88760493	142.112
53.9076189	94.0297
53.92763287	130.908
53.94764683	53.3188
53.9676608	133.722
53.98767476	80.9612
54.00768873	116.714
54.0277027	118.653
54.04771666	93.3845
54.06773063	149.565
54.0877446	143.555
54.10775856	146.683
54.12777253	47.525
54.1477865	23.1343
54.16780046	104.757
54.18781443	57.5135
54.2078284	78.0801
54.22784236	90.7503
54.24785633	76.2553
54.2678703	78.9659
54.28788426	159.213
54.30789823	83.0689
54.3279122	120.431
54.34792616	51.0845
54.36794013	163.626
54.3879541	198.997
54.40796806	72.4908
54.42798203	28.9516
54.447996	27.3035
54.46800996	115.193
54.48802393	89.9446
54.5080379	64.9895
54.52805186	65.7624
54.54806583	31.2714
54.56807979	51.6909
54.58809376	71.0293
54.60810773	111.509
54.62812169	118.061
54.64813566	181.646
54.66814963	31.3145
54.68816359	73.8484
54.70817756	77.0849
54.72819153	77.387
54.74820549	82.9503
54.76821946	112.034
54.78823343	93.4922
54.80824739	204.165
54.82826136	45.5897
54.84827533	111.771
54.86828929	24.684
54.88830326	83.7824
54.90831723	136.998
54.92833119	129.21
54.94834516	45.0786
54.96835913	133.112
54.98837309	137.171
55.00838706	160.126
55.02840103	30.2858
55.04841499	13.6265
55.06842896	170.603
55.08844293	84.872
55.10845689	79.1526
55.12847086	120.322
55.14848482	30.732
55.16849879	77.9834
55.18851276	31.2919
55.20852672	23.0861
55.22854069	20.7456
55.24855466	120.964
55.26856862	29.5758
55.28858259	101.582
55.30859656	72.5028
55.32861052	42.9902
55.34862449	26.2543
55.36863846	74.8271
55.38865242	56.4743
55.40866639	80.5072
55.42868036	46.2337
55.44869432	71.1183
55.46870829	138.606
55.48872226	8.59873
55.50873622	96.296
55.52875019	48.6529
55.54876416	14.1865
55.56877812	54.2061
55.58879209	38.8267
55.60880606	67.3395
55.62882002	171.118
55.64883399	111.73
55.66884796	134.669
55.68886192	82.138
55.70887589	61.957
55.72888985	85.3789
55.74890382	91.7151
55.76891779	86.7267
55.78893175	77.7672
55.80894572	36.5843
55.82895969	51.2897
55.84897365	150.802
55.86898762	72.2209
55.88900159	57.3937
55.90901555	158.366
55.92902952	140.338
55.94904349	51.4485
55.96905745	64.1328
55.98907142	72.5224
56.00908539	95.4936
56.02909935	179.292
56.04911332	53.2247
56.06912729	29.8132
56.08914125	66.3017
56.10915522	104.946
56.12916919	42.4861
56.14918315	60.9756
56.16919712	145.785
56.18921109	113.406
56.20922505	54.8042
56.22923902	104.952
56.24925298	61.1748
56.26926695	77.7603
56.28928092	195.536
56.30929488	76.1566
56.32930885	131.797
56.34932282	95.1923
56.36933678	108.783
56.38935075	105.206
56.40936472	74.0408
56.42937868	96.7999
56.44939265	110.885
56.46940662	140.027
56.48942058	88.2643
56.50943455	133.444
56.52944852	8.41449
56.54946248	89.3642
56.56947645	76.8523
56.58949042	68.0981
56.60950438	53.4873
56.62951835	31.6456
56.64953232	68.5991
56.66954628	169.528
56.68956025	50.5486
56.70957422	79.1821
56.72958818	49.5274
56.74960215	22.0472
56.76961612	56.7291
56.78963008	15.4908
56.80964405	73.9167
56.82965801	19.3084
56.84967198	99.9269
56.86968595	142.256
56.88969991	231.567
56.90971388	132.969
56.92972785	58.0568
56.94974181	39.0246
56.96975578	78.5867
56.98976975	131.929
57.00978371	53.6781
57.02979768	73.4651
57.04981165	124.745
57.06982561	113.98
57.08983958	11.1419
57.10985355	78.5783
57.12986751	102.167
57.14988148	98.5748
57.16989545	91.7217
57.18990941	83.2223
57.20992338	114.655
57.22993735	45.4076
57.24995131	56.4507
57.26996528	175.999
57.28997925	140.96
57.30999321	131.507
57.33000718	51.2047
57.35002115	44.6574
57.37003511	147.566
57.39004908	66.0576
57.41006304	55.3817
57.43007701	100.086
57.45009098	45.4404
57.47010494	105.237
57.49011891	26.6926
57.51013288	105.939
57.53014684	11.2408
57.55016081	60.8196
57.57017478	52.5335
57.59018874	96.8294
57.61020271	115.616
57.63021668	54.2571
57.65023064	97.5297
57.67024461	88.1007
57.69025858	31.42
57.71027254	25.3726
57.73028651	60.4406
57.75030048	103.836
57.77031444	154.256
57.79032841	36.5159
57.81034238	55.1082
57.83035634	97.7754
57.85037031	46.9044
57.87038428	79.9994
57.89039824	63.5309
57.91041221	113.55
57.93042618	59.4128
57.95044014	115.948
57.97045411	85.4445
57.99046807	145.793
58.01048204	53.1144
58.03049601	102.839
58.05050997	67.7618
58.07052394	152.853
58.09053791	195.548
58.11055187	76.5955
58.13056584	22.8071
58.15057981	142.212
58.17059377	70.5145
58.19060774	53.7359
58.21062171	80.7732
58.23063567	131.289
58.25064964	88.74
58.27066361	66.1445
58.29067757	95.912
58.31069154	134.234
58.33070551	88.3942
58.35071947	79.3742
58.37073344	61.2334
58.39074741	83.1881
58.41076137	150.522
58.43077534	17.2131
58.45078931	133.664
58.47080327	71.9419
58.49081724	85.0803
58.5108312	47.5287
58.53084517	74.0858
58.55085914	68.0911
58.5708731	108.69
58.59088707	39.8706
58.61090104	83.3174
58.630915	45.3135
58.65092897	98.7171
58.67094294	90.4768
58.6909569	63.7258
58.71097087	110.817
58.73098484	82.6192
58.7509988	68.4277
58.77101277	85.5303
58.79102674	55.8454
58.8110407	69.4531
58.83105467	53.8903
58.85106864	55.6319
58.8710826	118.942
58.89109657	126.161
58.91111054	76.2427
58.9311245	132.149
58.95113847	76.2646
58.97115244	34.0288
58.9911664	12.3594
59.01118037	32.2161
59.03119434	81.7822
59.0512083	82.718
59.07122227	112.316
59.09123623	98.3208
59.1112502	22.1459
59.13126417	67.4874
59.15127813	81.9548
59.1712921	133.594
59.19130607	102.18
59.21132003	55.4917
59.231334	103.335
59.25134797	53.522
59.27136193	54.6089
59.2913759	59.0592
59.31138987	133.053
59.33140383	56.1277
59.3514178	97.9325
59.37143177	24.3777
59.39144573	81.9188
59.4114597	54.8636
59.43147367	109.148
59.45148763	44.6635
59.4715016	87.8574
59.49151557	112.424
59.51152953	82.7904
59.5315435	91.1674
59.55155747	128.916
59.57157143	30.435
59.5915854	68.2497
59.61159937	54.1979
59.63161333	93.5062
59.6516273	188.235
59.67164126	23.5963
59.69165523	80.1351
59.7116692	118.282
59.73168316	98.4435
59.75169713	90.5332
59.7717111	56.372
59.79172506	78.8134
59.81173903	56.3006
59.831753	68.0998
59.85176696	75.044
59.87178093	88.8114
59.8917949	36.9796
59.91180886	34.9983
59.93182283	136.005
59.9518368	87.1064
59.97185076	69.5133
59.99186473	93.7627
60.0118787	17.1728
60.03189266	73.0112
60.05190663	76.2818
60.0719206	105.988
60.09193456	134.891
60.11194853	79.0532
60.1319625	58.8158
60.15197646	181.533
60.17199043	54.1091
60.1920044	114.586
60.21201836	127.215
60.23203233	72.9932
60.25204629	64.9306
60.27206026	157.803
60.29207423	108.801
60.31208819	120.062
60.33210216	54.3915
60.35211613	47.9591
60.37213009	34.3722
60.39214406	27.1323
60.41215803	49.6987
60.43217199	67.0346
60.45218596	83.4592
60.47219993	38.0066
60.49221389	22.3943
60.51222786	71.0915
60.53224183	16.794
60.55225579	47.7217
60.57226976	110.033
60.59228373	23.5554
60.61229769	48.9909
60.63231166	61.7101
60.65232563	161.814
60.67233959	111.013
60.69235356	79.0874
60.71236753	89.5878
60.73238149	135.235
60.75239546	138.421
60.77240942	23.1781
60.79242339	92.9529
60.81243736	115.152
60.83245132	86.0903
60.85246529	59.6921
60.87247926	99.9749
60.89249322	63.1572
60.91250719	114.2
60.93252116	68.6838
60.95253512	91.2922
60.97254909	59.9367
60.99256306	3.91003
61.01257702	85.0185
61.03259099	47.1292
61.05260496	128.745
61.07261892	133.945
61.09263289	123.095
61.11264686	19.7374
61.13266082	28.7301
61.15267479	103.294
61.17268876	112.802
61.19270272	50.222
61.21271669	111.731
61.23273066	70.0442
61.25274462	121.265
61.27275859	52.9733
61.29277256	135.264
61.31278652	80.0054
61.33280049	48.1373
61.35281445	59.8682
61.37282842	12.4096
61.39284239	110.678
61.41285635	83.7717
61.43287032	30.1081
61.45288429	73.5154
61.47289825	152.821
61.49291222	25.9914
61.51292619	62.015
61.53294015	24.5504
61.55295412	75.9973
61.57296809	90.3754
61.59298205	48.1264
61.61299602	68.297
61.63300999	126.872
61.65302395	30.8487
61.67303792	98.0644
61.69305189	89.0758
61.71306585	75.9408
61.73307982	54.0312
61.75309379	109.57
61.77310775	92.0462
61.79312172	10.2102
61.81313569	193.637
61.83314965	43.1862
61.85316362	116.218
61.87317759	15.1052
61.89319155	26.5359
61.91320552	109.737
61.93321948	115.646
61.95323345	79.7271
61.97324742	119.252
61.99326138	79.764
62.01327535	98.0405
62.03328932	52.3829
62.05330328	26.3189
62.07331725	90.2072
62.09333122	108.43
62.11334518	54.2554
62.13335915	169.99
62.15337312	61.902
62.17338708	57.649
62.19340105	70.7569
62.21341502	114.647
62.23342898	45.5217
62.25344295	136.419
62.27345692	150.886
62.29347088	86.9904
62.31348485	62.0386
62.33349882	73.9647
62.35351278	67.4312
62.37352675	86.799
62.39354072	95.1195
62.41355468	61.5302
62.43356865	103.08
62.45358262	57.7591
62.47359658	77.6319
62.49361055	77.6778
62.51362451	42.4278
62.53363848	113.251
62.55365245	63.2785
62.57366641	148.935
62.59368038	141.939
62.61369435	19.8679
62.63370831	85.3554
62.65372228	59.893
62.67373625	102.088
62.69375021	51.297
62.71376418	15.4654
62.73377815	58.7389
62.75379211	111.093
62.77380608	60.4483
62.79382005	50.558
62.81383401	35.2251
62.83384798	70.4761
62.85386195	123.049
62.87387591	104.749
62.89388988	64.167
62.91390385	106.771
62.93391781	89.1437
62.95393178	67.7928
62.97394575	94.5209
62.99395971	66.9848
63.01397368	147.879
63.03398764	98.6525
63.05400161	53.0304
63.07401558	42.57
63.09402954	47.6477
63.11404351	56.6237
63.13405748	117.878
63.15407144	98.1422
63.17408541	122.43
63.19409938	127.441
63.21411334	27.0224
63.23412731	57.45
63.25414128	106.508
63.27415524	23.6356
63.29416921	44.2074
63.31418318	36.0366
63.33419714	150.853
63.35421111	77.2919
63.37422508	63.047
63.39423904	78.709
63.41425301	115.741
63.43426698	114.885
63.45428094	29.0502
63.47429491	143.533
63.49430888	72.6041
63.51432284	105.869
63.53433681	89.1157
63.55435078	112.6
63.57436474	52.9367
63.59437871	17.4874
63.61439267	70.8629
63.63440664	78.4041
63.65442061	36.3793
63.67443457	123.503
63.69444854	22.115
63.71446251	24.2923
63.73447647	95.7332
63.75449044	32.8943
63.77450441	15.276
63.79451837	126.036
63.81453234	60.3707
63.83454631	60.4285
63.85456027	114.781
63.87457424	113.961
63.89458821	166.014
63.91460217	107.564
63.93461614	68.3774
63.95463011	93.7346
63.97464407	121.628
63.99465804	70.6618
64.01467201	84.3175
64.03468597	105.339
64.05469994	39.5007
64.07471391	32.2604
64.09472787	154.624
64.11474184	140.177
64.13475581	86.6183
64.15476977	119.668
64.17478374	135.937
64.1947977	76.7742
64.21481167	52.4736
64.23482564	26.9394
64.2548396	126.285
64.27485357	192.397
64.29486754	153.601
64.3148815	70.9481
64.33489547	58.2167
64.35490944	120.222
64.3749234	134.686
64.39493737	66.9907
64.41495134	45.7546
64.4349653	86.5316
64.45497927	119.563
64.47499324	75.7811
64.4950072	72.2895
64.51502117	222.561
64.53503514	146.541
64.5550491	160.245
64.57506307	48.5197
64.59507704	59.7736
64.615091	118.978
64.63510497	207.258
64.65511894	42.6593
64.6751329	150.724
64.69514687	45.6865
64.71516084	89.043
64.7351748	86.3777
64.75518877	56.3212
64.77520273	68.0436
64.7952167	66.9593
64.81523067	49.1933
64.83524463	102.067
64.8552586	113.18
64.87527257	186.871
64.89528653	143.042
64.9153005	90.4078
64.93531447	39.6822
64.95532843	58.8518
64.9753424	90.5874
64.99535637	112.114
65.01537033	46.294
65.0353843	150.257
65.05539827	172.462
65.07541223	103.516
65.0954262	78.9083
65.11544017	31.6313
65.13545413	110.303
65.1554681	71.9086
65.17548207	39.2193
65.19549603	135.301
65.21551	41.3499
65.23552397	2.75984
65.25553793	32.9899
65.2755519	29.1644
65.29556586	222.967
65.31557983	18.332
65.3355938	124.608
65.35560776	45.92
65.37562173	109.291
65.3956357	13.0299
65.41564966	161.514
65.43566363	64.9145
65.4556776	114.894
65.47569156	114.559
65.49570553	55.1413
65.5157195	37.4279
65.53573346	102.075
65.55574743	113.142
65.5757614	101.216
65.59577536	73.8667
65.61578933	129.659
65.6358033	24.377
65.65581726	74.5409
65.67583123	133.746
65.6958452	29.8818
65.71585916	78.4502
65.73587313	6.52321
65.7558871	126.314
65.77590106	14.5689
65.79591503	37.2628
65.815929	83.3783
65.83594296	40.8462
65.85595693	143.023
65.87597089	21.3559
65.89598486	64.1666
65.91599883	30.4032
65.93601279	57.2743
65.95602676	106.861
65.97604073	43.0343
65.99605469	31.9606
66.01606866	63.0397
66.03608263	60.9094
66.05609659	100.575
66.07611056	72.9801
66.09612453	8.91965
66.11613849	48.7428
66.13615246	181.681
66.15616643	106.589
66.17618039	63.422
66.19619436	29.403
66.21620833	24.3347
66.23622229	122.546
66.25623626	126.584
66.27625023	83.4548
66.29626419	36.581
66.31627816	193.179
66.33629213	101.307
66.35630609	34.7356
66.37632006	106.551
66.39633403	143.675
66.41634799	106.062
66.43636196	46.3225
66.45637592	29.0798
66.47638989	158.248
66.49640386	108.75
66.51641782	40.4109
66.53643179	51.8945
66.55644576	107.192
66.57645972	131.018
66.59647369	162.703
66.61648766	34.9295
66.63650162	66.7523
66.65651559	76.0577
66.67652956	40.2246
66.69654352	47.001
66.71655749	46.0576
66.73657146	52.4368
66.75658542	16.9067
66.77659939	22.8143
66.79661336	94.6592
66.81662732	66.6584
66.83664129	59.3907
66.85665526	39.5084
66.87666922	10.5332
66.89668319	74.1149
66.91669716	114.788
66.93671112	97.956
66.95672509	66.4134
66.97673906	61.6504
66.99675302	246.705
67.01676699	53.6592
67.03678095	32.9428
67.05679492	184.419
67.07680889	98.8377
67.09682285	82.64
67.11683682	70.2621
67.13685079	136.732
67.15686475	133.338
67.17687872	74.2202
67.19689269	91.4713
67.21690665	157.322
67.23692062	92.7679
67.25693459	50.8199
67.27694855	40.8311
67.29696252	86.1123
67.31697649	46.4565
67.33699045	192.246
67.35700442	74.2964
67.37701839	71.658
67.39703235	29.4418
67.41704632	64.1036
67.43706029	104.544
67.45707425	138.448
67.47708822	143.75
67.49710219	77.5769
67.51711615	53.9307
67.53713012	81.5484
67.55714408	59.7051
67.57715805	150.647
67.59717202	125.98
67.61718598	87.442
67.63719995	122.976
67.65721392	160.82
67.67722788	140.934
67.69724185	66.6668
67.71725582	79.6334
67.73726978	112.364
67.75728375	61.3224
67.77729772	173.667
67.79731168	31.2106
67.81732565	60.0604
67.83733962	100.208
67.85735358	38.4465
67.87736755	36.9668
67.89738152	40.8313
67.91739548	101.521
67.93740945	114.478
67.95742342	44.9049
67.97743738	145.396
67.99745135	104.999
68.01746532	116.96
68.03747928	141.775
68.05749325	76.352
68.07750722	84.6941
68.09752118	97.7764
68.11753515	18.1479
68.13754911	86.3782
68.15756308	26.1445
68.17757705	115.223
68.19759101	43.2476
68.21760498	43.7532
68.23761895	61.7144
68.25763291	57.592
68.27764688	163.286
68.29766085	122.467
68.31767481	131.772
68.33768878	31.5783
68.35770275	95.66
68.37771671	154.101
68.39773068	41.9492
68.41774465	34.8292
68.43775861	69.385
68.45777258	33.0493
68.47778655	112.572
68.49780051	94.9291
68.51781448	0.513474
68.53782845	11.1774
68.55784241	87.1173
68.57785638	28.4265
68.59787035	117.089
68.61788431	27.0239
68.63789828	71.4067
68.65791225	129.902
68.67792621	84.805
68.69794018	70.8931
68.71795414	42.063
68.73796811	73.9253
68.75798208	133.357
68.77799604	78.3737
68.79801001	54.7375
68.81802398	79.9917
68.83803794	61.6215
68.85805191	77.8961
68.87806588	60.7431
68.89807984	32.9549
68.91809381	68.7958
68.93810778	176.064
68.95812174	50.1435
68.97813571	80.8894
68.99814968	67.598
69.01816364	66.1851
69.03817761	99.1072
69.05819158	200.668
69.07820554	79.0591
69.09821951	49.186
69.11823348	92.9021
69.13824744	109.553
69.15826141	107.143
69.17827538	62.1332
69.19828934	19.4991
69.21830331	49.487
69.23831728	199.66
69.25833124	106.068
69.27834521	53.8004
69.29835917	24.262
69.31837314	114.793
69.33838711	57.7553
69.35840107	144.138
69.37841504	134.409
69.39842901	31.1839
69.41844297	48.3317
69.43845694	73.0647
69.45847091	118.215
69.47848487	80.8638
69.49849884	70.1136
69.51851281	63.7703
69.53852677	38.4875
69.55854074	87.6538
69.57855471	70.4163
69.59856867	89.9234
69.61858264	87.8618
69.63859661	60.8056
69.65861057	83.1123
69.67862454	93.6896
69.69863851	87.9431
69.71865247	24.8705
69.73866644	48.1525
69.75868041	8.93872
69.77869437	136.361
69.79870834	69.5247
69.8187223	132.547
69.83873627	50.7739
69.85875024	116.988
69.8787642	83.4491
69.89877817	45.0272
69.91879214	33.1422
69.9388061	72.18
69.95882007	42.8834
69.97883404	100.777
69.998848	104.414
70.01886197	32.3672
70.03887594	68.9523
70.0588899	62.7966
70.07890387	56.268
70.09891784	123
70.1189318	39.4017
70.13894577	125.696
70.15895974	88.678
70.1789737	77.6109
70.19898767	86.4926
70.21900164	44.7226
70.2390156	67.5099
70.25902957	168.75
70.27904354	41.0003
70.2990575	166.961
70.31907147	15.0255
70.33908544	98.1496
70.3590994	66.5711
70.37911337	70.9049
70.39912733	44.1482
70.4191413	92.9804
70.43915527	47.7032
70.45916923	89.1977
70.4791832	91.1293
70.49919717	95.2708
70.51921113	22.4733
70.5392251	61.6628
70.55923907	90.7973
70.57925303	24.6769
70.599267	48.3514
70.61928097	69.3099
70.63929493	68.9955
70.6593089	140.502
70.67932287	97.0733
70.69933683	112.687
70.7193508	16.2164
70.73936477	127.829
70.75937873	56.639
70.7793927	90.3111
70.79940667	114.66
70.81942063	116.127
70.8394346	104.804
70.85944857	116.809
70.87946253	83.679
70.8994765	49.3006
70.91949047	132.413
70.93950443	16.5087
70.9595184	208.726
70.97953236	130.858
70.99954633	64.8258
71.0195603	53.2168
71.03957426	16.7135
71.05958823	47.786
71.0796022	56.2906
71.09961616	107.95
71.11963013	111.1
71.1396441	89.2314
71.15965806	98.3422
71.17967203	154.047
71.199686	101.368
71.21969996	87.5884
71.23971393	239.612
71.2597279	56.0091
71.27974186	53.7166
71.29975583	84.3646
71.3197698	154.517
71.33978376	58.5908
71.35979773	9.41533
71.3798117	81.1388
71.39982566	69.1126
71.41983963	29.4979
71.4398536	79.8115
71.45986756	28.1072
71.47988153	185.287
71.4998955	234.825
71.51990946	112.697
71.53992343	92.3191
71.55993739	50.0419
71.57995136	58.1302
71.59996533	110.577
71.61997929	75.3065
71.63999326	112.778
71.66000723	79.9888
71.68002119	36.7718
71.70003516	97.0245
71.72004913	103.213
71.74006309	178.473
71.76007706	51.9631
71.78009103	79.5898
71.80010499	30.2293
71.82011896	200.049
71.84013293	75.831
71.86014689	64.7256
71.88016086	57.9536
71.90017483	86.9146
71.92018879	48.5356
71.94020276	68.5961
71.96021673	67.7175
71.98023069	79.3442
72.00024466	71.9118
72.02025863	65.623
72.04027259	106.3
72.06028656	85.4027
72.08030052	89.6153
72.10031449	56.2692
72.12032846	151.046
72.14034242	172.001
72.16035639	47.6846
72.18037036	117.304
72.20038432	142.51
72.22039829	121.194
72.24041226	75.1779
72.26042622	115.419
72.28044019	126.259
72.30045416	134.311
72.32046812	114.008
72.34048209	88.4792
72.36049606	62.3655
72.38051002	144.132
72.40052399	63.5144
72.42053796	173.375
72.44055192	23.518
72.46056589	158.833
72.48057986	198.323
72.50059382	118.776
72.52060779	81.6048
72.54062176	169.444
72.56063572	127.126
72.58064969	105.664
72.60066366	64.554
72.62067762	69.136
72.64069159	92.2762
72.66070555	34.012
72.68071952	81.7382
72.70073349	61.3354
72.72074745	155.233
72.74076142	126.399
72.76077539	94.4022
72.78078935	158.229
72.80080332	56.4414
72.82081729	55.2284
72.84083125	33.2987
72.86084522	50.8059
72.88085919	59.2047
72.90087315	72.8498
72.92088712	127.11
72.94090109	133.588
72.96091505	136.311
72.98092902	18.9488
73.00094299	62.6847
73.02095695	77.8736
73.04097092	24.3117
73.06098489	191.308
73.08099885	57.4339
73.10101282	22.9672
73.12102679	137.691
73.14104075	6.51926
73.16105472	127.491
73.18106869	66.8485
73.20108265	133.064
73.22109662	57.2641
73.24111058	93.7283
73.26112455	67.2161
73.28113852	153.121
73.30115248	38.2511
73.32116645	56.0677
73.34118042	35.7933
73.36119438	73.9863
73.38120835	130.079
73.40122232	147.017
73.42123628	81.3618
73.44125025	69.854
73.46126422	132.288
73.48127818	98.8365
73.50129215	176.522
73.52130612	27.0691
73.54132008	82.044
73.56133405	96.0245
73.58134802	50.3272
73.60136198	36.7396
73.62137595	177.064
73.64138992	27.9577
73.66140388	50.7246
73.68141785	111.034
73.70143182	96.4326
73.72144578	5.05638
73.74145975	81.2708
73.76147372	149.883
73.78148768	93.5486
73.80150165	55.6119
73.82151561	94.215
73.84152958	54.054
73.86154355	22.7289
73.88155751	56.9357
73.90157148	150.388
73.92158545	26.5189
73.94159941	120.997
73.96161338	70.2453
73.98162735	150.871
74.00164131	66.4712
74.02165528	79.6247
74.04166925	106.427
74.06168321	55.7935
74.08169718	127.11
74.10171115	23.1208
74.12172511	104.436
74.14173908	113.875
74.16175305	77.0649
74.18176701	67.7833
74.20178098	33.7437
74.22179495	83.1727
74.24180891	77.3853
74.26182288	53.1399
74.28183685	57.5507
74.30185081	178.293
74.32186478	143.662
74.34187874	79.5429
74.36189271	192.912
74.38190668	47.1599
74.40192064	201.621
74.42193461	48.2139
74.44194858	132.744
74.46196254	63.1275
74.48197651	54.1693
74.50199048	191.332
74.52200444	56.3865
74.54201841	157.627
74.56203238	112.915
74.58204634	121.223
74.60206031	76.3757
74.62207428	109.253
74.64208824	111.043
74.66210221	26.6708
74.68211618	69.0579
74.70213014	62.8132
74.72214411	52.9927
74.74215808	22.2446
74.76217204	46.3528
74.78218601	11.7986
74.80219998	152.564
74.82221394	23.6679
74.84222791	50.0019
74.86224188	173.022
74.88225584	60.1262
74.90226981	42.4543
74.92228377	74.5677
74.94229774	38.4988
74.96231171	71.2042
74.98232567	135.875
75.00233964	92.829
75.02235361	145.484
75.04236757	42.8221
75.06238154	22.3536
75.08239551	201.453
75.10240947	98.7578
75.12242344	152.855
75.14243741	119.01
75.16245137	75.1619
75.18246534	86.3862
75.20247931	38.5643
75.22249327	110.532
75.24250724	60.3883
75.26252121	142.481
75.28253517	139.306
75.30254914	35.2197
75.32256311	8.1399
75.34257707	111.192
75.36259104	38.3844
75.38260501	89.7595
75.40261897	54.899
75.42263294	68.617
75.44264691	58.4518
75.46266087	48.1165
75.48267484	77.9338
75.5026888	48.4308
75.52270277	102.563
75.54271674	43.398
75.5627307	173.343
75.58274467	87.4685
75.60275864	73.8268
75.6227726	127.629
75.64278657	26.4766
75.66280054	126.507
75.6828145	54.2149
75.70282847	7.64253
75.72284244	102.077
75.7428564	36.2895
75.76287037	47.5289
75.78288434	79.4803
75.8028983	135.379
75.82291227	84.8552
75.84292624	99.2182
75.8629402	83.9736
75.88295417	64.7546
75.90296814	98.103
75.9229821	105.867
75.94299607	21.9203
75.96301004	74.9703
75.983024	109.574
76.00303797	57.3821
76.02305194	125.537
76.0430659	51.024
76.06307987	70.407
76.08309383	86.5361
76.1031078	79.5252
76.12312177	123.298
76.14313573	122.395
76.1631497	63.7307
76.18316367	58.9777
76.20317763	52.949
76.2231916	64.9132
76.24320557	155.621
76.26321953	163.564
76.2832335	44.0977
76.30324747	75.1759
76.32326143	104.559
76.3432754	46.1531
76.36328937	34.5132
76.38330333	45.0201
76.4033173	86.2105
76.42333127	37.0396
76.44334523	112.263
76.4633592	138.252
76.48337317	83.2312
76.50338713	53.2332
76.5234011	27.5864
76.54341507	118.582
76.56342903	17.7734
76.583443	57.5894
76.60345696	108.747
76.62347093	45.0707
76.6434849	55.4482
76.66349886	53.8343
76.68351283	112.855
76.7035268	173.656
76.72354076	89.654
76.74355473	51.0903
76.7635687	76.0356
76.78358266	62.1204
76.80359663	84.3805
76.8236106	124.638
76.84362456	69.0195
76.86363853	144.342
76.8836525	94.1497
76.90366646	42.5902
76.92368043	12.4148
76.9436944	99.2456
76.96370836	27.5956
76.98372233	133.191
77.0037363	41.1435
77.02375026	10.7379
77.04376423	45.6802
77.0637782	74.9377
77.08379216	60.0383
77.10380613	30.9166
77.1238201	42.1955
77.14383406	46.7143
77.16384803	73.7118
77.18386199	33.4194
77.20387596	176.019
77.22388993	122.88
77.24390389	111.87
77.26391786	79.8187
77.28393183	101.721
77.30394579	53.7511
77.32395976	24.0846
77.34397373	122.338
77.36398769	91.3138
77.38400166	110.802
77.40401563	114.761
77.42402959	47.5582
77.44404356	144.745
77.46405753	109.348
77.48407149	82.4862
77.50408546	90.9615
77.52409943	60.2536
77.54411339	170.554
77.56412736	50.0436
77.58414133	41.7499
77.60415529	99.1878
77.62416926	47.7624
77.64418323	15.1094
77.66419719	69.1162
77.68421116	56.4184
77.70422513	66.7135
77.72423909	37.5166
77.74425306	62.5927
77.76426702	136.328
77.78428099	131.708
77.80429496	98.4035
77.82430892	21.2042
77.84432289	115.262
77.86433686	109.568
77.88435082	67.8613
77.90436479	71.8302
77.92437876	56.6681
77.94439272	74.0786
77.96440669	84.7155
77.98442066	90.0559
78.00443462	87.2329
78.02444859	79.5497
78.04446256	27.8934
78.06447652	108.666
78.08449049	68.698
78.10450446	102.066
78.12451842	193.545
78.14453239	147.407
78.16454636	237.028
78.18456032	62.5917
78.20457429	13.255
78.22458826	79.3408
78.24460222	190.495
78.26461619	100.237
78.28463016	188.46
78.30464412	40.6047
78.32465809	126.394
78.34467205	98.5908
78.36468602	120.968
78.38469999	167.681
78.40471395	108.514
78.42472792	24.9589
78.44474189	60.5507
78.46475585	86.3278
78.48476982	66.0689
78.50478379	90.2859
78.52479775	88.4041
78.54481172	60.5618
78.56482569	46.637
78.58483965	126.28
78.60485362	49.0844
78.62486759	144.784
78.64488155	54.933
78.66489552	100.563
78.68490949	138.462
78.70492345	74.9963
78.72493742	83.0473
78.74495139	48.2301
78.76496535	102.791
78.78497932	88.8997
78.80499329	17.6984
78.82500725	31.8173
78.84502122	51.7871
78.86503518	120.728
78.88504915	86.0508
78.90506312	72.314
78.92507708	77.0347
78.94509105	89.3716
78.96510502	77.7505
78.98511898	78.4732
79.00513295	47.7311
79.02514692	130.751
79.04516088	156.069
79.06517485	51.5031
79.08518882	53.1562
79.10520278	78.2347
79.12521675	11.261
79.14523072	47.0204
79.16524468	134.274
79.18525865	26.3498
79.20527262	113.541
79.22528658	30.4558
79.24530055	88.4813
79.26531452	59.766
79.28532848	109.901
79.30534245	91.525
79.32535642	63.4226
79.34537038	48.4333
79.36538435	59.8787
79.38539832	76.1447
79.40541228	69.4292
79.42542625	130.155
79.44544021	81.4094
79.46545418	100.466
79.48546815	104.194
79.50548211	26.7504
79.52549608	20.0377
79.54551005	99.909
79.56552401	118.394
79.58553798	13.0009
79.60555195	77.252
79.62556591	133.735
79.64557988	16.3237
79.66559385	63.7209
79.68560781	68.8488
79.70562178	58.3299
79.72563575	134.889
79.74564971	166.797
79.76566368	165.589
79.78567765	176.21
79.80569161	93.002
79.82570558	21.8992
79.84571955	99.0852
79.86573351	46.2903
79.88574748	122.092
79.90576145	108.565
79.92577541	65.573
79.94578938	82.5705
79.96580335	131.59
79.98581731	36.0813
80.00583128	58.1594
80.02584524	21.1092
80.04585921	136.506
80.06587318	51.8933
80.08588714	166.913
80.10590111	42.8795
80.12591508	39.3767
80.14592904	89.3264
80.16594301	134.757
80.18595698	86.0477
80.20597094	86.1089
80.22598491	90.9434
80.24599888	76.5077
80.26601284	61.3584
80.28602681	36.7575
80.30604078	21.1158
80.32605474	58.4612
80.34606871	132.107
80.36608268	125.192
80.38609664	68.0901
80.40611061	120.993
80.42612458	39.2729
80.44613854	134.015
80.46615251	108.068
80.48616648	100.42
80.50618044	17.5835
80.52619441	90.91
80.54620838	58.9176
80.56622234	109.388
80.58623631	126.776
80.60625027	137.588
80.62626424	76.2718
80.64627821	104.407
80.66629217	8.82607
80.68630614	48.4
80.70632011	131.459
80.72633407	56.4958
80.74634804	34.9773
80.76636201	63.687
80.78637597	41.2878
80.80638994	78.4901
80.82640391	109.827
80.84641787	62.7353
80.86643184	66.8336
80.88644581	64.9623
80.90645977	128.809
80.92647374	75.7764
80.94648771	139.276
80.96650167	88.2212
80.98651564	68.7753
81.00652961	118.283
81.02654357	17.75
81.04655754	174.797
81.06657151	32.3217
81.08658547	8.99023
81.10659944	133.781
81.1266134	36.501
81.14662737	77.3385
81.16664134	141.245
81.1866553	51.9066
81.20666927	134.006
81.22668324	108.237
81.2466972	115.56
81.26671117	116.89
81.28672514	34.5824
81.3067391	106.178
81.32675307	44.94
81.34676704	96.9846
81.366781	109.025
81.38679497	64.8368
81.40680894	110.739
81.4268229	114.035
81.44683687	56.8393
81.46685084	116.017
81.4868648	48.2015
81.50687877	63.4933
81.52689274	129.631
81.5469067	51.994
81.56692067	71.5858
81.58693464	104.89
81.6069486	26.1821
81.62696257	35.9555
81.64697654	77.3526
81.6669905	48.7561
81.68700447	162.559
81.70701843	83.9419
81.7270324	62.7424
81.74704637	77.9611
81.76706033	62.8585
81.7870743	62.3085
81.80708827	92.4629
81.82710223	120.262
81.8471162	69.7268
81.86713017	165.952
81.88714413	137.386
81.9071581	87.7776
81.92717207	51.9977
81.94718603	120.93
81.9672	68.739
