Bruker BioSpin GmbH: the minispec
DataType=1
DataLimits=-81.9672,81.9672,8192
DataUnit=Freq/kHz,
c:\users\student\documents\nmr-apps\fluor_ft_pcii.app
07.01.2025 16:49:18

146.584
65.3772
114.898
58.287
96.6917
93.8959
73.2077
13.3184
31.3288
107.601
48.5943
113.734
21.3132
30.1006
109.32
5.56693
92.802
38.3623
49.2127
143.803
57.8857
107.875
104.351
109.865
143.815
25.2035
18.5257
27.4972
82.0968
67.4513
55.1997
34.9962
96.9414
69.0673
155.717
130.623
59.0838
104.674
96.5628
64.2926
135.904
161.816
64.1094
159.674
63.0977
116.116
41.7239
112.347
61.9298
113.208
83.4437
81.0737
100.363
51.0051
53.2665
33.788
112.149
111.75
89.1676
96.4504
80.608
56.3039
54.523
97.574
37.8843
32.2427
49.5176
78.8151
55.1671
68.4758
79.4674
47.213
80.2922
193.896
28.6774
75.425
21.3665
77.6327
43.4794
72.8281
30.5933
79.9809
66.7965
36.7281
33.7792
51.5378
46.6516
89.4826
105.849
44.7386
52.3498
86.2145
129.414
106.318
132.414
92.0088
87.7652
88.9086
123.968
66.6789
3.3939
135.433
124.696
88.56
78.7205
53.4642
67.7355
111.199
74.2211
133.933
119.993
13.1217
45.1646
61.4075
75.3328
19.9968
67.8202
67.7637
98.9866
57.9712
110.989
72.1844
101.167
31.5642
52.12
101.239
50.2346
92.5023
74.7256
120.958
36.1218
126.385
78.1607
113.831
92.39
45.2486
54.2827
96.915
50.1864
118.554
10.3626
106.61
96.4312
43.5424
103.448
29.7025
136.712
73.4671
165.497
35.1336
79.3588
69.3155
123.294
36.8494
151.69
43.3526
167.268
92.2705
40.6521
44.1258
186.062
77.2025
47.4013
152.296
114.933
122.668
75.6189
51.9833
105.467
74.4477
29.5227
233.131
50.7443
77.1509
128.891
38.0694
39.874
51.4055
91.8363
75.4965
73.0783
49.4459
125.977
74.9196
75.1927
91.3176
25.8152
56.1883
69.3266
49.8506
85.4662
83.9523
110.521
152.236
103.562
47.6027
22.8804
62.7148
97.8012
47.3597
101.603
55.9707
99.3109
8.52501
24.2097
45.5213
104.363
88.1478
25.1626
88.7346
102.38
2.53473
94.0423
23.103
94.9067
87.2728
78.7176
59.3893
98.9943
174.954
53.6314
31.5936
194.802
51.4291
108.05
137.983
82.3368
149.291
40.0477
101.876
174.427
95.0257
138.791
71.6571
130.962
120.427
8.74105
29.1968
53.2848
44.3981
154.844
211.455
69.1563
26.4523
51.4318
58.5259
73.6759
72.6116
93.4527
62.2209
46.3756
99.6453
97.7041
146.586
70.4099
57.4557
84.5259
74.0225
78.7491
79.3197
110.123
112.675
113.579
74.8647
79.7708
52.1741
93.3625
55.6226
122.197
58.0603
131.598
48.8459
113.179
154.478
175.688
73.0625
15.9256
72.1308
152.095
119.723
29.3759
177.699
90.3625
97.2826
74.3096
91.2466
84.5796
132.835
111.301
68.2544
109.392
35.629
157.656
20.5477
48.1942
109.821
42.6632
20.4729
22.9451
45.9461
41.3779
58.0346
53.9234
42.0745
94.2111
52.1706
49.0121
28.7125
71.1314
53.1499
66.6367
53.6822
170.652
54.5019
128.049
181.742
90.9195
98.2326
21.6753
37.4365
69.9544
59.8533
95.782
165.136
150.365
60.1593
47.5291
135.75
147.142
107.078
74.6901
97.2534
52.8405
88.6989
185.45
110.965
167.441
62.2933
91.3686
106.096
49.6953
46.7576
144.437
50.4992
91.4422
76.2371
116.985
108.876
57.6966
93.1783
27.8953
29.4904
87.4527
79.0377
62.6804
9.86994
99.5162
87.8088
62.7069
131.391
70.4849
36.9429
177.846
64.8711
133.654
83.6037
77.9129
111.886
123.887
92.2813
145.12
97.7987
28.3754
67.1288
61.8861
115.785
44.9656
105.375
80.0896
39.8933
43.8434
80.1798
59.8578
83.4813
10.3187
78.8696
43.1229
68.4443
102.657
107.413
32.3583
147.258
198.781
93.3295
77.3699
22.8013
23.4443
164.101
84.9013
163.913
38.9121
172.232
112.103
48.679
117.831
183.012
168.827
37.1358
51.5807
43.7417
189.35
51.5659
84.7541
50.1959
100.278
55.6587
68.0099
32.3687
34.7512
161.197
39.7885
61.8244
130.543
48.7738
90.3405
68.655
100.365
20.9357
108.23
96.6482
42.433
63.5475
63.7776
88.0016
36.1527
110.471
125.463
100.863
43.425
74.4991
43.9538
150.945
178.395
42.4635
19.2047
86.8334
110.944
190.854
17.7615
41.1454
17.6669
54.0834
165.077
38.8373
64.4597
136.256
85.8629
154.133
120.669
41.2351
69.9643
93.1465
34.0049
75.9297
34.2836
66.5944
60.2785
142.538
24.0379
75.3237
93.7513
138.664
50.8185
110.496
20.6293
63.5371
152.361
108.978
139.184
132.816
121.538
43.6152
59.3894
102.271
37.2633
100.548
61.4871
99.1185
190.592
85.7198
161.182
89.0368
155.044
11.2938
10.0325
76.3769
23.287
72.1482
86.4652
117.823
180.214
36.8811
81.6515
43.4245
45.0791
154.887
128.393
189.157
107.961
138.962
50.1316
81.6988
39.0821
156.384
76.4236
142.171
126.407
28.8741
254.313
85.1854
169.595
73.8616
67.0495
62.8732
37.0077
19.5099
83.9107
36.6102
108.909
43.5892
59.4259
10.3259
55.9965
26.4515
67.8384
43.3944
102.619
87.6953
13.0038
16.795
57.194
45.8769
144.408
82.1931
121.082
118.364
50.9437
9.33077
80.5799
47.0703
48.5437
69.67
73.8119
34.1861
18.5383
14.1342
110.543
47.8629
55.4685
82.2988
141.655
47.1747
47.4436
33.4443
50.4573
117.109
75.0193
76.8664
108.512
167.267
60.8504
74.4431
160.485
76.292
73.6223
102.245
72.3903
100.027
34.6081
98.2487
99.6513
59.3643
57.2683
125.475
89.3989
118.234
51.7589
37.0617
42.1423
119.721
39.4639
197.443
162.223
126.451
33.1775
26.3281
72.6896
54.6883
98.8395
91.2937
108.665
26.4055
114.97
56.1111
125.485
170.286
164.878
30.51
69.9717
76.1538
19.2269
35.3261
70.1561
77.8475
29.2358
61.1773
28.1677
15.6057
61.4766
115.561
111.401
125.708
40.4381
83.4429
50.9069
88.6067
83.204
74.4588
71.7255
129.623
82.1936
50.21
84.3305
72.8382
70.5698
118.698
95.3472
91.2662
95.8334
67.7461
116.965
73.5196
159.702
28.5118
155.015
100.899
8.82298
138.605
25.1377
68.0771
225.621
122.586
18.7968
80.911
66.2021
120.83
76.9087
44.6894
133.581
15.629
45.4413
59.1328
107.781
77.906
88.4975
22.6953
21.3135
37.1097
29.2065
40.4282
29.535
60.3693
61.2689
139.285
106.896
76.3115
52.2137
61.9698
71.5101
177.874
147.062
22.4617
55.4327
103.849
109.378
82.5213
136.669
49.9227
68.746
117.308
72.1392
92.6036
97.5723
57.0325
159.602
178.236
68.4089
48.7606
50.8891
35.9587
34.5729
29.8602
43.2703
94.7382
137.325
74.9479
97.6155
79.9896
147.253
21.778
42.8452
78.3178
134.681
157.124
52.0252
149.294
46.4004
120.99
65.3026
132.838
36.3348
66.2695
81.7893
8.67438
59.7026
108.315
136.721
69.7972
61.2654
139.518
14.6026
33.7937
64.1888
106.121
121.641
130.009
67.3293
34.049
104.236
79.5243
103.478
10.899
27.2584
89.6981
19.1807
70.0426
28.6853
146.766
53.5378
26.6877
18.1327
70.493
91.3895
69.6911
32.1938
89.4619
71.9256
79.3733
142.334
85.1681
40.8261
80.4133
11.7181
131.77
95.6371
34.3712
76.0996
41.3676
104.874
161.04
4.65282
203.863
24.1987
87.9756
74.2996
68.4587
73.6997
104.712
107.199
51.2907
101.244
91.6197
65.1281
62.1315
11.5104
88.2551
104.578
106.879
66.2495
65.3998
103.428
57.4382
36.7225
72.1545
71.474
113.813
104.144
28.8012
69.9696
33.5772
69.4829
73.5714
79.1932
95.189
62.0701
93.3791
82.3489
164.704
97.7682
124.611
67.4084
60.3332
65.6762
45.1355
94.0014
61.9811
52.4631
64.4355
95.6387
59.9358
59.6103
75.9461
14.9248
59.4261
170.325
40.7935
5.98329
58.0788
79.7527
145.449
121.574
77.2545
124.509
195.142
97.4288
147.044
88.9469
13.3861
115.61
87.5171
83.9443
111.068
89.3828
60.8908
103.047
123.819
62.959
108.312
109.965
8.31308
102.184
68.1262
172.98
99.489
31.639
29.6947
77.1849
44.5416
42.6956
89.6442
38.2204
106.486
101.75
39.8576
114.637
85.359
92.0422
50.5073
49.5177
122.383
86.4427
137.461
96.7647
90.4392
198.475
110.591
33.4154
56.7767
38.5586
105.177
121.877
108.828
44.6118
79.1629
52.2422
93.0271
59.6583
46.7796
155.189
148.138
101.113
96.144
11.9246
65.9286
35.4724
136.217
158.613
90.5438
66.3329
49.8724
101.709
114.527
111.78
82.9061
110.823
79.4774
100.132
134.392
117.951
46.0098
138.159
79.3821
126.038
120.094
53.0692
101.49
58.4076
86.5419
55.2673
34.7126
97.6254
126.678
62.4965
103.264
80.1157
159.095
42.2466
18.9164
28.8031
154.32
53.6552
73.8501
139.979
56.6442
126.175
81.6717
78.0092
47.7385
195.418
105.291
44.1102
96.8
45.2639
49.0982
92.4264
103.841
173.397
46.4918
158.305
134.275
53.1194
62.1256
51.5915
66.3023
128.543
59.5367
93.2786
104.58
94.5698
128.299
46.9455
53.5635
25.4441
105.168
55.0303
100.561
75.4117
206.528
53.0193
127.561
14.1326
31.0873
90.8388
95.464
4.08553
132.312
73.0361
59.3408
128.701
79.4711
90.9836
50.603
131.398
55.5076
43.174
105.028
55.288
27.3716
35.8811
49.974
124.28
52.9478
23.61
53.9372
58.944
49.1551
194.753
32.6895
31.6036
49.2445
30.5953
35.282
82.5127
250.162
147.855
13.6762
111.051
155.054
40.2838
47.1134
107.729
36.2665
78.672
79.7423
157.075
49.2339
115.85
133.539
52.3158
40.2843
35.7064
75.2276
124.848
110.372
90.0724
35.0001
10.5172
50.1417
15.6175
112.701
22.575
80.7917
130.22
140.062
93.2378
127.722
196.217
81.7797
131.553
108.983
36.6859
88.5447
31.052
52.3983
74.2017
55.5807
36.6437
114.896
52.954
114.478
154.876
46.5765
45.1082
95.3091
26.96
25.7224
101.88
124.482
87.6645
58.2059
12.7364
115.774
85.4032
102.387
91.3226
93.645
36.3271
46.0828
100.543
56.7403
41.0758
53.8924
47.6321
106.539
101.31
135.673
28.3735
107.104
10.749
148.64
71.5954
84.677
99.9697
33.2621
49.3347
14.0728
21.7621
65.0772
143.625
65.9036
137.668
16.3288
121.204
19.5589
26.2567
122.7
60.5478
127.15
23.4386
6.01806
2.44788
71.0629
96.7524
76.3977
35.6051
124.932
47.3107
130.133
70.8689
77.7034
22.352
145.563
114.409
110.505
96.7687
27.2947
43.7172
77.2595
51.8998
45.5749
44.8446
140.22
76.3097
95.8882
5.02045
21.7188
104.734
118.019
1.79053
34.5266
114.24
37.7371
61.2804
68.2446
46.4743
183.694
20.4255
94.0086
87.2343
60.3844
42.0389
100.782
49.2153
56.7349
94.9647
32.2156
184.019
111.588
53.2814
114.519
51.2299
39.0684
188.252
67.6874
35.0383
42.921
173.35
86.5682
63.291
50.381
107.706
87.3074
121.308
66.1094
40.7864
78.5021
59.3669
89.7363
129.635
103.891
179.983
112.193
52.3733
86.0285
34.7406
46.2991
18.1991
51.0764
67.8732
86.6157
59.3256
210.509
146.228
63.4985
168.81
61.7073
104.179
34.6756
45.9547
32.9623
96.3696
94.9247
120.658
160.029
61.5595
89.8178
151.156
170.838
110.631
52.7569
128.761
34.1641
109.885
138.97
74.5867
54.2917
28.415
104.118
101.228
117.776
148.797
53.0886
41.3921
83.3634
148.97
34.8616
86.1204
38.3985
115.773
93.3277
108.148
106.317
24.2345
45.8506
75.0087
16.815
33.8007
39.0681
80.9298
85.2048
177.764
81.709
86.2732
31.0555
149.189
184.985
120.365
109.485
23.0744
85.7431
100.375
31.0146
48.4293
38.3043
38.1246
34.4482
107.065
14.3129
79.5164
70.8291
58.4063
145.134
61.7954
88.3878
80.3528
40.8256
190.405
67.5615
92.6776
138.809
82.0025
59.0975
61.603
65.7973
76.5355
33.7463
29.2403
182.737
9.95542
50.8523
100.351
110.457
100.705
16.7282
120.374
58.7576
100.292
63.6221
81.3317
71.6492
94.0372
56.4907
37.0014
26.2144
99.2447
155.56
63.1839
22.2476
62.0579
62.4101
106.298
72.1692
77.6472
37.8032
113.025
47.3597
81.8696
111.178
184.825
87.5112
125.778
70.4565
96.1248
39.0707
130.884
127.816
85.3401
23.4905
44.4015
126.312
98.416
71.9843
190.663
56.6674
61.727
28.5013
51.7691
27.271
74.4688
118.854
78.2908
84.5207
5.71192
56.0391
133.243
50.0037
97.5177
38.5119
102.561
88.986
107.916
136.489
123.805
34.611
124.064
65.3075
76.5378
142.018
172.909
43.4904
9.56469
53.4
10.1183
133.514
61.5394
96.609
102.96
185.483
111.407
98.4327
74.9794
19.2859
45.954
134.855
58.2069
56.598
87.5155
59.1177
50.1362
22.2925
156.743
135.683
165.307
82.7438
97.2928
18.5762
87.3702
147.548
1.86513
61.5928
45.1853
29.4705
75.1633
59.756
111.799
29.1408
36.4138
45.2007
146.076
6.85574
66.3737
77.3181
95.5364
100.41
250.602
64.2574
82.1843
36.4264
157.058
77.1463
22.4001
121.091
85.7209
95.8256
74.2166
170.214
81.6545
102.032
92.1745
78.2213
152.724
31.651
48.6406
116.941
56.8947
45.6538
104.574
99.1524
77.6325
16.5229
65.9669
72.5543
64.5411
80.5624
63.8379
108.801
121.962
96.8005
60.7696
112.568
111.963
167.742
114.431
52.4657
74.6465
64.5922
20.4883
77.1501
80.2125
149.394
86.0915
118.568
54.7616
97.8526
70.3267
72.489
87.1549
90.0598
85.159
60.8242
123.374
69.1691
163.735
107.674
155.131
52.2983
109.581
69.9185
159.603
70.3272
109.955
95.7102
13.4619
20.3429
35.0838
61.6283
170.545
86.3519
21.3025
79.4285
50.8898
114.347
148.349
131.257
21.1662
43.9825
65.3726
142.367
107.116
19.3532
103.721
51.0521
47.1912
73.9432
96.342
78.6531
89.0828
32.3741
61.9401
76.2111
64.6444
53.2979
48.943
139.233
68.266
132.415
108.246
18.2437
30.4119
79.9137
85.4341
33.2482
67.3728
131.959
36.3135
74.7476
90.3604
57.3713
222.853
53.1085
102.374
141.67
93.9406
109.787
101.108
39.1741
160.295
65.1383
94.9777
76.4966
187.187
23.7646
149.253
110.572
153.465
96.4654
57.6782
29.5052
54.0149
165.49
24.1452
48.0337
79.9612
107.847
111.879
154.053
64.1337
36.927
135.353
87.1389
73.8721
52.0419
125.793
97.833
63.5615
79.6479
97.161
121.856
50.7529
95.6786
46.2244
68.2016
121.347
98.3296
69.3198
44.775
177.197
119.378
37.2051
83.9444
56.6673
104.54
101.68
21.1513
127.279
116.877
38.4366
96.8223
148.878
12.1525
90.2089
117.341
64.0634
121.249
152.908
129.925
136.24
99.1354
59.2471
63.542
13.2414
33.7019
170.248
94.0209
137.682
66.4077
171.146
31.9756
108.528
93.3264
37.419
87.8267
116.3
81.4759
73.3499
144.126
16.0756
35.4787
186.157
105.904
91.9299
63.7532
124.91
73.2619
132.077
126.534
133.495
70.6794
11.5692
77.8241
128.941
28.417
151.761
54.9995
51.8407
21.9698
87.8256
149.377
147.439
94.2877
96.2695
114.58
35.2964
45.4235
118.826
65.5005
110.384
73.5763
88.4288
31.6725
55.7832
110.846
111.18
60.2907
62.5411
120.459
105.938
47.5679
108.588
101.573
32.3803
38.0646
93.1442
59.8258
126.135
11.438
125.437
95.7544
124.595
22.7318
83.2958
133.725
59.047
101.198
35.3357
60.6495
116.263
104.521
64.9497
22.9909
56.6132
34.8951
86.1442
108.753
52.4237
101.4
61.9397
47.5541
125.391
25.5407
54.4715
56.8452
72.776
60.046
62.4717
77.9484
135.105
104.202
131.861
14.8491
76.1586
25.1942
54.8654
29.0775
140.747
82.5363
139.807
53.8585
106.076
46.2921
145.258
135.732
120.315
122.929
140.441
109.515
70.7425
102.258
81.4514
103.633
51.2589
175.142
50.0711
36.6315
139.596
153.728
95.337
152.107
118.989
52.1114
96.6653
33.9818
39.4126
92.3707
103.039
40.7813
187.756
128.744
29.8659
113.082
59.7487
95.3582
40.2449
148.487
91.363
120.258
226.417
85.647
59.5477
68.2737
46.1871
61.9325
124.295
39.1414
12.7845
116.411
106.872
77.9949
51.3667
46.1646
64.7611
30.293
8.29355
72.4216
55.3519
84.8707
79.8373
87.3644
75.2172
72.8031
51.5903
54.2526
93.7704
174.426
38.9412
32.1148
186.983
75.5746
48.856
139.82
64.3971
133.55
98.2601
55.7646
116.567
163.523
42.8338
96.5186
48.9698
14.3988
102.96
27.9851
61.6315
86.2111
113.31
43.0901
88.368
48.8443
102.379
66.3402
50.2898
25.2175
157.318
59.6278
11.2997
173.315
127.837
27.8228
25.4237
81.6352
64.4089
121.12
127.257
36.871
61.095
38.1366
2.34986
54.3577
144.002
67.8588
181.604
51.9933
73.3145
59.4297
118.037
145.013
75.9559
122.175
63.5496
165.255
102.357
77.4912
62.2989
70.0941
36.9797
10.437
68.0887
60.9196
58.656
106.945
69.9228
50.4842
52.0158
13.5248
22.029
93.4653
87.8178
19.5357
35.6304
76.5012
109.508
17.1301
145.811
88.8278
26.9692
76.6689
64.7203
67.1349
13.3734
102.529
139.067
150.543
109.813
24.0343
84.217
132.234
84.2726
109.489
41.6304
70.8008
48.9598
123.991
78.3157
56.5695
86.295
95.4941
58.609
30.1803
64.3732
78.3186
119.376
83.6453
106.347
40.1914
66.6547
121.097
70.4543
85.0138
15.1206
101.525
76.1204
87.5883
39.8429
42.2744
85.1299
56.0119
65.0122
78.5195
34.524
48.676
68.9569
39.9861
106.822
141.177
56.2841
152.129
84.2948
57.6635
39.1917
39.8337
80.7534
63.2092
102.554
145.986
149.112
201.8
106.858
126.868
35.9601
54.3127
191.989
13.992
52.2149
39.8614
79.7547
66.5225
112.435
214.984
10.2673
33.0081
141.653
82.6935
31.1043
45.4558
130.105
67.9758
133.431
47.6895
45.0531
40.5435
68.502
95.706
96.2438
183.045
72.0793
78.498
86.3126
59.1126
95.6807
111.661
153.161
102.873
154.335
209.897
92.2552
155.959
85.8437
51.1445
62.9473
79.4206
102.718
82.1819
187.13
138.62
65.5382
69.7907
94.7392
87.3674
76.8657
40.4838
74.8312
120.126
23.9665
47.2059
131.953
31.0726
75.2157
88.2516
55.9033
17.1182
59.9521
10.6519
18.1351
17.0424
88.4069
149.784
158.751
73.6638
98.5554
45.895
105.71
60.1723
75.0391
78.2611
221.115
112.869
30.3767
155.24
23.9574
35.644
99.7694
64.6626
56.2315
51.5724
8.98084
61.5796
6.68165
67.6664
148.304
110.3
84.9389
32.5303
60.8989
190.311
35.238
45.7154
54.7289
43.1434
85.3628
34.6376
54.3452
195.747
49.7204
68.1799
178.929
20.8644
80.8048
27.6748
105.926
57.02
83.0059
109.986
160.267
31.1307
31.5516
162.141
86.5015
170.77
71.2589
82.8359
35.8154
35.2603
72.3999
172.161
322.389
89.4317
110.414
73.658
37.7347
85.4791
45.619
89.0345
64.5818
16.4534
154.414
81.9028
127.862
93.2916
113.021
57.6607
55.0558
143.31
90.9745
99.6527
95.6989
96.664
172.013
105.951
42.927
97.8216
136.535
147.513
73.3026
50.9155
95.7419
57.4354
173.605
111.829
70.1733
116.92
72.763
121.467
22.0982
52.2544
137.756
88.5234
94.3278
66.2726
96.6159
48.619
76.3441
52.8344
179.196
26.4474
95.7497
124.939
143.575
32.3778
87.0395
81.3911
42.8087
46.254
71.5002
58.6042
24.0951
51.9226
138.276
62.7565
78.0851
101.028
65.6884
77.936
233.488
94.7401
19.4058
29.7234
44.1817
49.4245
115.923
79.9076
88.7775
49.0281
62.6404
31.2212
136.833
43.3428
168.936
85.6345
72.7942
24.0991
71.1083
92.0722
148.432
138.241
94.0432
114.593
99.5567
98.3154
64.5373
93.4155
94.2919
94.0566
119.162
108.789
28.3941
40.4012
85.7645
109.217
39.0524
82.7203
72.2448
112.55
203.217
104.356
109.445
91.67
178.965
54.6873
98.7918
98.318
63.8892
104.228
38.3867
19.8195
61.8586
10.6337
49.456
99.784
14.387
91.927
54.7864
178.889
44.5233
68.1207
66.3449
93.3594
64.4882
108.139
185.496
47.9567
75.8589
39.4234
157.024
223.575
87.4155
73.5108
155.974
74.0168
62.4744
38.5634
91.3308
141.911
143.483
29.8445
126.542
14.0605
29.1942
31.4134
81.5635
64.5842
47.2193
161.338
37.0741
99.2589
58.8892
22.3658
129.218
61.6849
64.6263
12.5141
38.9585
95.6766
107.518
30.8296
135.392
122.68
80.7527
52.9733
93.0094
64.82
163.957
64.7475
90.853
113.654
131.049
57.9674
194.509
125.325
104.687
93.5696
132.83
68.6253
41.0892
45.6748
121.345
115.27
46.5552
6.41398
73.7779
123.855
73.6572
98.7484
39.5827
67.5723
28.4337
183.502
66.7269
37.9652
111.54
114.427
56.5283
107.326
104.089
72.031
26.3853
108.492
43.1856
10.2767
120.77
50.2816
106.25
93.5108
89.337
66.1409
3.27337
110.803
184.48
138.744
99.5645
125.735
178.141
144.625
69.2218
67.5978
181.671
29.5029
96.3493
82.7776
66.9798
34.8219
129.366
113.598
115.44
72.9805
101.738
76.1568
111.723
103.105
158.484
83.4958
51.326
123.741
140.69
72.301
85.7674
69.4172
66.3537
108.462
33.4287
112.158
35.4744
89.7228
203.796
11.4977
29.1965
104.226
61.6821
61.4553
85.0653
139.358
175.816
36.2916
112.807
73.5954
133.899
118.199
19.1145
58.0224
48.9956
111.221
58.6205
65.7279
42.0434
64.8843
84.6436
108.035
169.334
157.82
35.5423
10.714
60.4305
129.214
134.399
113.617
66.1416
84.4005
67.4412
76.35
116.648
14.7558
42.329
91.7539
42.2707
34.798
67.5254
26.6155
76.5372
13.2578
65.6426
47.5951
100.208
33.0696
20.7548
99.0604
109.035
59.3983
84.3009
146.99
59.5433
66.595
111.604
20.2924
127.631
135.778
134.895
135.394
80.6823
62.4929
9.86739
76.0382
98.1976
123.71
169.903
82.3774
144.488
128.823
62.2313
32.1095
48.062
50.6006
35.1951
69.0294
144.146
202.75
147.535
33.2801
100.95
39.4042
138.642
30.8114
125.799
54.7585
103.444
175.723
77.8236
66.5291
115.334
153.906
151.649
101.956
52.6308
40.9348
115.841
22.1516
105.862
22.6573
136.121
85.556
226.393
156.047
64.9324
154.827
51.1238
72.7301
79.2488
30.4595
31.6479
95.138
123.087
51.1438
87.3744
51.7971
39.2343
140.504
64.4126
59.6678
150.926
65.8029
38.1219
49.4879
108.874
127.687
168.952
39.7572
199.226
98.6633
1.99873
49.257
158.834
25.611
54.8658
60.5847
79.7639
116.838
79.5887
23.9187
64.2941
159.177
96.8211
48.8277
47.9856
14.8072
28.0223
103.455
142.998
152.327
57.8092
56.4744
140.045
182.038
113.981
109.834
73.0912
21.2364
45.695
108.55
1.03048
70.7452
82.6636
82.8414
9.30671
156.407
60.3668
46.5973
28.4351
52.5758
148.467
131.237
42.1032
75.7558
167.808
102.958
33.1395
88.9456
107.048
111.278
57.638
122.162
28.0355
64.1251
48.7123
59.3622
95.8481
80.8758
58.2327
89.4116
145.394
90.1572
45.6702
85.3622
39.7584
24.369
98.8941
92.7638
40.5082
61.9486
59.8818
82.5843
92.4925
85.6381
110.614
45.799
94.4843
86.8704
99.1744
129.882
71.3157
55.39
220.928
126.802
28.9016
72.1701
62.9383
87.9719
50.4594
70.501
58.9697
48.6582
85.1434
37.2847
51.403
32.2121
45.0067
95.7277
80.2947
118.134
56.6055
90.5747
85.6881
187.317
125.769
43.8134
91.0486
80.024
152.341
169.592
50.3927
86.9849
182.51
38.0907
68.1066
61.3036
89.9463
99.7358
132.41
124.541
74.8486
119.106
98.35
154.25
120.44
82.1258
60.012
60.6168
50.179
104.238
71.3287
92.0003
31.716
196.871
51.8322
33.4039
149.322
46.9941
132.371
88.6635
81.9949
128.409
164.579
115.803
108.304
113.702
104.979
171.736
150.257
58.0147
70.2546
67.3066
60.1125
143.873
112.013
31.0877
65.1288
107.228
46.5151
42.7634
34.8501
37.8666
122.705
45.4867
143.808
157.032
20.145
172.986
139.65
67.8039
120.943
59.9253
28.1123
88.8583
74.0702
62.0728
66.8027
108.924
102.603
51.7969
54.4689
45.1498
79.165
11.7204
179.716
54.6497
47.0698
97.3418
46.1361
64.1468
75.4259
63.0821
127.833
81.0773
60.9662
40.7235
105.797
87.6745
92.8677
122.547
117.064
71.2938
121.228
125.151
80.6798
135.816
105.43
166.942
105.588
97.5181
46.5899
79.3648
97.6882
99.8531
66.1626
74.416
45.2516
74.7926
114.914
38.6531
142.2
60.8676
28.4932
101.65
94.1955
39.9628
114.054
39.7345
68.3611
73.5763
78.461
97.5404
175.657
75.8311
88.093
74.9937
106.764
143.351
44.7995
13.8626
104.393
49.0907
189.852
44.0379
137.565
51.9841
20.0606
64.9984
39.6642
78.059
39.3356
98.5961
146.748
24.8095
94.087
24.091
104.028
23.9254
87.8267
36.5697
113.837
27.6921
98.8933
111.223
57.0502
101.16
55.601
67.7418
16.3211
93.6569
63.3521
89.6042
88.2969
50.941
64.875
104.664
39.114
122.627
15.0871
113.955
78.3159
105.908
43.1223
105.182
87.1474
103.423
76.3962
129.23
34.8593
171.973
42.2242
138.274
101.824
37.9878
103.859
51.7428
8.20219
63.8652
96.2712
42.827
71.3124
76.0295
90.1051
43.6876
87.9053
170.663
101.461
77.5464
48.1627
99.903
62.8542
159.042
93.253
111.102
58.1307
72.9758
19.6308
79.0329
164.724
59.0945
24.8543
108.76
97.0209
130.398
133.996
43.7249
19.5565
123.159
48.861
90.1602
27.1197
88.2787
109.34
31.3112
39.0435
23.3546
125.11
148.299
41.9582
142.669
20.0278
50.4795
52.3286
100.324
26.5725
104.399
123.317
64.9171
55.9515
21.4485
55.3257
74.5391
171.165
130.385
148.101
26.6882
48.9918
111.523
181.755
110.091
77.0199
108.853
158.351
128.354
119.375
135.649
96.7996
177.816
102.364
142.389
145.434
96.1239
92.3028
214.017
48.2142
65.3641
88.9388
7.55912
77.5139
132.429
62.1725
108.733
53.4738
126.262
75.584
58.2428
102.617
52.2709
204.787
157.109
75.9164
151.536
62.8868
74.3345
94.683
103.042
38.0049
14.3414
151.243
43.5688
135.922
108.692
89.405
30.4766
86.8211
83.7947
99.8391
100.246
43.6945
94.2063
185.32
10.4667
89.7773
58.0862
187.894
41.6797
60.3863
116.409
131.898
166.589
175.803
90.7179
49.1539
102.176
107.735
97.927
24.174
82.2891
8.37491
104.153
213.294
99.4136
43.3541
121.908
60.2984
40.6053
23.304
98.503
29.5792
42.5857
26.5898
88.5725
153.614
73.5913
92.5096
14.444
144.495
114.493
54.4226
90.5916
62.3088
51.8655
134.322
82.9385
34.0602
20.068
60.2478
56.2393
3.81844
84.634
165.272
108.344
29.9289
35.2076
175.8
85.2519
39.5037
38.0465
110.858
113.661
145.967
13.3389
99.5545
76.8564
75.5549
72.7726
66.3311
16.6697
70.9392
76.9915
90.277
73.4427
32.7292
54.5178
73.054
86.1462
63.7435
72.4367
218.462
100.372
69.6918
20.502
189.228
3.62038
108.406
86.5319
56.9515
68.558
74.0512
73.3487
32.6552
75.401
128.95
104.995
75.3447
104.987
12.1287
73.138
171.132
86.9373
39.8449
72.3511
54.5659
69.4029
150.866
64.8438
76.8788
96.7266
44.6477
27.3783
98.2539
44.5506
151.381
138.618
108.376
73.5129
200.45
103.08
76.5619
22.38
90.5141
22.322
73.2807
7.86973
20.2241
77.1816
114.556
82.4191
29.7169
32.2651
224.277
66.4887
37.4983
55.048
97.596
55.5462
103.539
63.1084
84.651
51.896
183.415
197.977
102.643
119.703
52.0773
108.344
14.0353
98.106
36.0273
96.0062
57.0373
92.3404
134.9
153.57
82.8251
117.068
135.713
88.4326
11.3802
110.911
61.1051
75.0402
80.6258
11.602
127.537
129.362
145.064
70.144
118.246
98.6231
116.65
134.889
119.563
123.686
74.06
72.5152
12.5022
126.52
6.39317
91.1002
53.4056
185.929
89.3791
58.5188
106.723
90.3055
50.2802
49.3352
54.5378
105.53
67.2783
40.2203
104.46
69.0196
69.3315
54.9211
53.9272
133.311
86.5781
133.645
104.532
88.4522
113.385
54.105
54.024
40.8363
43.8566
78.2688
67.4341
78.22
88.7998
123.238
49.4291
11.8329
11.1308
56.6968
56.8669
111.631
169.84
68.2667
51.3937
95.4065
94.921
41.8721
39.5531
103.013
126.605
38.3601
48.4109
71.1289
133.432
94.6804
34.3086
137.33
50.5838
42.0698
87.7931
51.3206
57.9971
173.621
118.713
95.0087
51.5934
60.9986
90.4446
75.1121
58.8824
25.0638
76.5846
110.992
106.061
69.9567
72
134.594
132.186
150.719
86.6742
83.7627
23.4058
45.9366
99.815
21.6588
74.8869
126.627
118.791
31.6408
101.203
42.0102
88.9027
55.133
74.7057
174.291
60.5545
48.1865
54.5918
138.209
111.373
53.8949
61.3398
50.7219
137.09
29.2165
68.3806
16.8972
43.8367
57.0543
101.701
11.5583
103.289
91.3595
89.155
75.8407
68.1628
83.4863
62.6395
116.493
69.8595
89.6177
69.25
105.109
113.701
220.011
35.2189
61.5594
68.2457
15.427
115.836
178.329
42.6439
118.378
135.78
113.985
55.0925
124.906
57.1134
62.2273
112.404
117.361
51.0092
120.568
89.9711
61.639
59.1111
182.458
82.973
82.5852
150.133
103.416
126.625
85.5629
33.5913
52.9023
50.2672
44.9067
76.211
127.096
111.008
96.4684
95.3075
76.4746
19.1171
76.3205
73.0387
186.019
114.466
50.0084
39.5501
48.093
32.0446
116.781
79.4878
100.573
133.086
31.4152
123.556
71.7057
100.249
30.2414
120.11
135.8
63.9877
57.1924
231.599
152.562
146.889
89.7123
135.87
17.1169
75.1601
209.373
72.1264
34.6672
129.506
93.9219
108.923
65.8084
81.9212
6.76935
85.6836
44.9143
97.2162
49.3501
98.2973
24.6635
36.2997
43.2351
52.3528
53.5971
39.5684
63.7601
21.5811
91.3418
94.165
26.0717
146.625
111.189
29.5126
25.9897
32.1166
72.4397
77.8456
99.4549
108.855
95.744
14.0329
39.0877
85.249
68.462
48.1664
99.6264
160.501
71.484
27.3181
173.456
83.5215
80.1379
28.5531
62.3768
37.4071
121.814
190.54
71.431
132.564
99.1357
189.418
200.12
39.9181
132.53
72.161
70.6165
90.0863
62.1201
7.03152
59.6527
73.0562
181.713
62.5854
48.7341
43.5005
74.6305
152.723
85.1756
23.5128
43.9396
95.8784
174.239
93.2146
83.8724
64.8552
26.1669
70.521
70.3648
49.9468
135.388
105.253
114.705
66.9693
101.915
97.682
34.448
75.0684
86.173
72.4378
56.6513
44.3773
74.8681
97.7995
40.0199
27.6492
129.527
74.1919
7.8404
74.7671
73.0738
68.9332
96.3975
95.1882
95.6539
60.2628
25.9761
91.8927
85.6704
87.9582
88.2349
133.518
73.7304
104.109
93.5542
85.9967
41.4064
71.2454
110.841
35.0023
115.801
128.064
27.1122
68.5188
106.171
52.2839
55.7987
107.35
134.18
128.062
38.6208
102.746
80.4604
102.369
79.1067
159.177
128.543
200.343
45.592
91.2528
62.7467
169.832
136.488
130.222
75.7752
26.5458
64.3964
53.7775
117.108
81.8777
80.2397
153.724
17.6075
105.411
12.6237
24.7199
55.9707
48.3534
177.089
33.2477
59.5351
73.8695
38.3617
121.254
78.3742
71.1259
42.4976
53.5528
132.536
101.7
90.8329
78.0498
95.884
35.0571
37.7884
95.9472
65.9798
46.646
107.297
80.2774
34.6553
17.8297
97.5126
53.8955
143.298
106.964
42.2688
73.4888
34.924
45.8487
17.7333
156.722
42.5076
74.6048
53.8972
32.3161
81.4455
123.722
69.1195
164.405
91.3597
126.221
146.618
101.292
80.9
98.698
104.213
101.989
75.7537
114.706
43.6452
126.222
19.1156
54.2402
117.952
106.303
112.543
73.8261
27.9742
90.3754
27.9157
59.5585
141.06
31.1364
19.2224
44.5703
71.9908
59.8994
71.9365
157.014
30.4445
68.0014
20.3373
51.3151
101.139
154.612
103.822
83.3191
123.466
124.713
88.3525
72.1119
103.64
88.8523
24.9839
63.4218
81.3289
67.4965
121.904
83.6663
71.4349
47.5825
39.0056
81.05
58.8479
14.867
34.6844
64.9163
45.1656
26.6169
41.8042
66.7278
58.0556
80.163
66.135
59.0041
92.9632
12.5356
39.5827
63.3489
53.8568
133.808
106.783
142.661
106.625
30.0813
75.7229
88.074
32.5079
40.5504
47.7474
145.551
146.73
98.0311
150.738
48.3561
61.266
21.0666
35.3307
133.933
79.5017
65.4636
40.6676
25.1626
93.6567
53.6307
95.2038
67.3368
83.1632
69.5819
93.8154
52.1634
172.033
50.2247
68.1035
97.6012
81.4182
112.954
49.2383
40.7609
63.3301
108
137.015
165.199
90.4893
123.579
38.3207
122.844
16.1453
50.1363
115.311
161.11
87.6155
38.7645
72.983
143.44
62.6097
109.772
59.9746
140.354
72.2016
29.4367
143.379
117.485
60.0197
86.5065
145.573
66.1672
117.059
130.022
178.291
70.9112
63.7938
71.1238
27.815
74.5494
176.111
55.3773
54.7853
58.8521
36.9214
57.7136
189.179
26.7431
65.5866
123.7
84.9206
87.5935
73.0778
54.9903
52.1569
76.5472
91.247
142
35.0777
104.382
50.1327
134.312
75.121
76.47
26.9264
40.9283
13.9649
30.817
23.7018
28.3507
158.363
73
87.8117
50.3895
71.7631
138.464
53.6419
157.264
97.0413
99.2333
55.2016
84.6982
30.2335
74.114
152.081
78.5484
53.0773
51.3623
147.699
88.6629
88.6145
74.8354
97.3197
105.356
92.2557
58.6481
51.7523
101.372
85.2944
103.863
146.489
40.9425
96.6874
95.8952
113.91
120.774
41.634
82.9516
57.1707
55.585
65.6307
82.0103
59.8463
36.8777
91.6529
16.4852
29.4357
87.2617
132.619
28.7543
85.8652
59.2063
22.872
125.677
84.304
27.9764
25.0539
166.656
56.0538
79.1685
60.7825
75.9098
97.379
88.8337
35.5975
20.9589
53.9494
123.414
122.436
177.434
19.6591
137.582
108.041
108.509
63.0199
68.5189
153.437
112.512
132
59.1049
40.7818
51.6307
64.5976
39.4707
31.5151
51.4588
52.9943
108.226
165.607
97.3727
14.9769
30.998
29.6669
88.2337
47.1557
28.1496
54.3228
21.3832
56.6933
84.5109
99.2088
93.2521
152.637
30.745
140.52
69.2103
117.131
13.1739
29.9113
84.0308
79.9588
76.3153
32.6798
155.195
33.0397
71.484
13.4076
89.3575
86.0016
49.3563
72.9787
60.4481
80.618
59.2347
92.3745
191.641
10.3279
146.013
49.7624
17.2604
66.4751
113.011
60.671
103.096
61.8771
32.6086
76.7922
68.52
21.8759
37.9164
125.397
81.7798
37.0714
80.6974
117.868
98.5545
104.961
55.7701
138.388
32.4444
110.869
88.0261
73.4271
114.269
87.9015
183.189
65.5106
82.0655
71.531
172.621
25.3873
57.6593
68.6001
50.0563
37.1475
142.571
85.4168
19.8539
31.5431
79.8789
59.1098
58.9334
45.5182
172.996
93.5769
56.1911
53.4115
78.043
55.7806
126.347
37.5239
64.5023
85.0495
111.675
39.1978
142.221
87.128
46.4043
42.8192
40.267
55.1173
165.643
63.3124
135.04
24.499
69.4162
102.509
106.834
140.691
89.9972
98.5277
107.988
96.9589
111.548
67.079
154.325
92.0233
128.449
126.146
74.0827
38.5212
69.9332
60.6034
95.0824
111.428
45.5888
63.2246
61.1535
106.65
32.5745
62.9927
100.352
86.3085
94.7634
143.949
69.7013
57.9655
81.3222
86.1302
62.9791
55.0081
52.8518
66.4827
63.765
50.41
104.109
180.291
169.298
58.6949
24.3592
199.995
105.077
111.607
124.379
108.035
11.9335
112.575
92.0345
140.78
64.9716
51.3903
113.086
27.9592
111.722
93.5051
54.5004
99.3249
101.163
60.1561
62.2472
71.0293
23.4107
37.5548
116.449
72.4091
102.613
79.0334
43.221
81.3718
69.523
63.0551
99.2482
87.3753
84.9151
131.888
137.794
134.247
12.2157
54.0964
128.413
17.5182
65.3365
104.165
51.1396
60.2633
81.0976
51.9307
73.055
17.8344
64.9355
69.492
44.6476
17.7508
151.3
66.727
77.824
125.708
51.457
31.6116
41.8473
34.9742
39.8015
101.095
95.0926
26.4228
78.1395
173.014
42.2639
120.973
68.3346
45.8596
78.7252
180.234
12.9973
63.3091
144.14
111.27
175.053
199.837
122.18
188.024
74.6498
68.7778
136.706
82.4481
30.622
74.5369
62.0439
59.4364
87.4485
136.255
113.15
67.9928
11.9246
81.4303
15.8779
15.8934
51.479
82.7251
98.7942
152.057
83.2901
40.0861
54.6034
36.3843
46.9608
27.1024
172.232
117.945
38.9625
73.8211
59.3317
51.337
72.3943
89.1739
77.0724
29.1905
52.1857
156.259
51.7934
131.932
103.425
40.6896
84.2433
126.766
107.481
22.5387
95.9581
86.7648
62.5168
89.2314
16.1536
41.4601
60.487
69.7117
108.717
36.826
46.8786
64.2745
92.4403
245.377
89.4024
69.4732
139.305
74.6171
69.3139
102.589
115.627
8.90547
123.321
34.8327
77.3838
76.5602
50.5309
106.512
54.4451
24.4666
66.0171
86.1448
46.1515
124.243
54.3694
36.5981
62.7336
144.444
35.9884
204.192
63.0859
40.3386
36.6917
158.125
84.6412
170.84
151.95
140.536
152.118
41.5531
17.6611
103.325
77.7806
41.0155
169.197
31.1422
22.0703
166.81
49.68
16.9048
61.1303
112.977
29.9765
31.9149
92.9929
163.689
113.721
97.445
18.2059
44.8545
89.1089
177.134
89.6498
46.3034
56.2532
80.9909
137.461
88.9736
19.5105
8.43808
170.442
147.222
36.2013
50.3348
133.261
139.466
82.5896
82.5861
142.463
35.2547
232.441
51.3932
71.4215
23.2783
168.093
49.7817
106.957
83.5155
57.0514
73.1369
39.3634
129.128
48.7743
77.5931
31.8406
11.9367
78.7526
117.575
35.0247
47.7461
90.744
58.9731
134.716
57.8932
132.653
105.594
126.777
59.2555
127.105
81.4863
39.28
75.9518
182.536
103.499
100.89
146.536
36.3846
87.0042
94.8026
49.4583
109.43
90.3468
149.102
103.748
132.718
186.185
121.966
78.7459
18.7201
124.206
104.243
33.9303
120.573
117.915
44.0987
130.057
178.344
103.037
58.4678
83.5201
86.8854
139.108
82.8802
222.423
136.201
72.4583
115.047
96.1685
57.4815
60.7452
66.5495
194.778
87.1634
176.996
522.739
21.7888
120.091
101.668
86.5645
106.961
168.612
63.2092
191.146
113.457
83.7888
77.6865
255.707
150.689
108.399
151.995
173.46
142.442
130.516
79.0921
168.004
106.872
260.838
180.378
219.891
233.495
196.101
140.985
168.466
182.564
203.411
62.847
294.15
127.524
75.4883
235.162
285.097
255.89
203.966
380.176
308.973
127.074
227.875
361.199
376.626
307.039
376.408
413.554
376.932
527.185
413.782
543.461
566.346
572.566
746.177
842.55
903.547
965.825
856.908
825.139
920.742
864.842
846.961
805.79
816.728
857.692
842.667
934.661
974.311
879.938
827.369
1023.94
720.302
665.935
635.879
520.956
576.943
439.177
467.357
435.441
456.82
399.091
288.634
347.161
392.898
342.482
284.459
208.387
231.202
267.232
247.522
280.587
231.353
187.635
272.588
197.269
198.68
309.534
183.36
203.195
187.826
233.972
309.504
271.645
89.064
138.176
96.7561
179.128
156.344
229.904
154.272
82.882
191.545
24.2294
213.681
70.1322
230.73
140.759
115.571
34.0555
65.0733
92.2826
186.022
135.55
145.768
137.867
159.326
108.018
91.1227
39.6432
203.426
101.38
116.175
143.481
123.928
59.1539
225.409
156.819
175.185
118.411
49.8752
78.9874
118.224
20.3658
147.481
178.097
186.862
98.1957
121.942
152.679
82.0743
114.753
112.629
129.782
75.7923
79.1618
11.7217
118.36
155.815
71.4307
159.627
70.4639
150.062
85.4964
103.488
146.122
86.5512
10.654
126.513
103.641
121.012
56.1733
21.8236
71.7049
69.2533
102.107
41.564
50.042
126.231
59.9762
118.299
9.54123
122.234
184.825
111.04
126.194
21.9308
74.0632
80.5673
165.894
33.1658
52.7976
223.361
30.4788
132.238
126.735
69.6246
157.478
55.4676
114.59
36.0602
34.9265
132.834
35.8947
138.304
170.602
122.681
182.355
141.368
136.785
109.216
74.2681
162.71
109.172
49.2771
145.44
103.17
57.1631
70.7244
71.0861
72.8067
159.583
32.0117
43.2486
72.5747
138.037
124.062
97.533
101.731
116.231
171.05
58.8959
95.5791
111.309
129.355
121.913
70.1111
74.5637
163.97
192.095
20.6547
97.1092
37.7828
82.0423
76.6833
62.2681
70.2696
11.9541
76.8137
54.0579
39.1587
37.8032
49.8709
105.155
124.395
65.9834
41.2455
198.514
31.9352
7.49813
114.852
95.28
112.211
113.274
189.657
119.411
24.018
59.2651
54.3274
87.5541
38.1908
138.343
154.127
83.6505
108.776
85.1731
13.5837
47.9412
36.1473
49.6191
101.885
70.0422
58.4824
60.0944
43.5071
147.829
148.719
71.9527
26.1478
65.3436
141.013
60.8754
35.57
93.4761
83.9101
86.2046
66.065
163.51
70.8158
51.2692
141.07
72.6497
171.039
159.961
68.7693
126.257
20.5726
97.2574
58.6302
100.889
121.984
44.5577
132.212
40.1968
38.9215
67.0081
77.1688
108.282
87.4935
31.4087
56.4478
128.374
73.7351
29.6392
87.26
175.056
126.424
169.619
94.0302
89.6001
94.1243
34.983
95.2055
97.2164
44.0341
65.0955
117.189
108.517
84.9992
60.8922
61.7062
119.177
70.9307
79.8308
93.016
14.4458
165.331
63.4993
150.749
98.9286
105.242
77.0677
27.0784
145.014
111.746
122.453
91.0975
39.4048
47.472
82.8285
83.5579
43.9641
103.211
72.8524
36.6523
93.4256
74.7038
136.893
65.7861
92.3881
120.24
43.6099
62.7852
39.4699
118.002
105.612
40.2607
171.783
53.3167
54.6061
52.381
122.729
136.622
58.9181
82.5725
120.024
14.9404
5.16319
75.8606
109.281
77.9203
66.7606
75.8775
207.218
175.835
38.8563
70.0672
47.1359
45.3181
72.2073
110.214
26.0502
161.572
151.87
148.553
71.4776
71.7237
39.6575
37.3679
150.042
128.261
74.8545
122.935
76.0442
32.2642
42.9131
184.317
127.253
162.953
171.927
25.1868
63.0723
50.3605
122.542
143.801
67.4832
14.8076
128.264
51.0865
99.8651
157.551
60.9909
19.9285
43.5594
43.3779
168.077
51.8633
74.9874
33.6136
32.873
145.395
118.602
21.7486
45.1683
23.9374
150.352
170.86
57.1264
102.06
107.155
205.069
73.6606
28.5881
76.8632
114.084
62.5377
182.275
50.2694
21.5514
100.559
15.0728
41.1451
118.09
31.2417
24.722
77.4061
35.4864
74.0612
28.8358
83.2891
102.467
122.469
135.848
92.0764
41.5087
47.8569
67.3645
183.788
8.13301
33.441
84.0073
113.131
139.193
118.626
76.4961
72.2048
41.3898
3.92641
29.4625
72.4414
110.715
72.4392
25.4988
93.961
140.901
67.5596
165.126
80.0336
39.749
50.6341
131.435
111.546
49.6601
74.2118
22.5221
30.0006
116.236
41.3047
40.7142
16.437
25.2375
135.3
65.2364
28.7532
110.45
12.9336
94.2463
157.764
76.2807
86.1807
156.048
122.708
177.373
36.154
160.231
33.7357
142.68
93.4254
175.167
127.956
81.7613
7.73654
142.9
8.60363
27.3796
56.7632
83.8458
12.3693
151.042
132.945
73.1386
78.0346
187.109
93.1088
89.682
121.257
76.4432
53.9575
63.7706
25.7708
85.0789
55.3458
71.6123
40.585
82.4966
71.5915
88.4001
43.3511
120.786
222.294
56.8544
101.98
39.1403
126.212
41.0543
119.534
15.0343
84.5358
20.3418
212.281
113.815
36.6568
100.686
55.2179
54.3421
186.666
129.657
77.5112
88.0883
10.6451
45.7736
114.655
7.67367
85.3964
122.551
21.2098
33.1217
97.5216
75.0332
108.958
36.6401
62.829
38.4843
86.2096
83.4617
94.3599
88.6956
105.729
111.19
67.0947
106.743
102.651
36.1201
151.006
42.6467
75.3932
37.7913
81.1884
87.9909
73.468
110.905
100.189
183.132
56.7805
71.6755
73.8606
66.7006
114.285
142.024
121.34
46.7166
121.168
44.8921
96.8247
70.5226
83.7572
91.6049
140.182
43.4978
36.6306
45.0156
3.42251
63.8885
96.5671
53.1967
110.207
96.4878
75.851
74.688
95.754
156.073
49.219
51.1944
160.172
25.0716
73.4715
64.7344
119.664
120.025
67.9291
125.721
119.407
43.4506
218.391
115.544
119.463
91.7894
120.833
87.1207
120.286
101.727
99.6689
38.9146
29.2305
41.7863
103.286
96.1661
98.3255
109.774
108.239
57.7359
68.664
78.7205
36.5347
164.767
88.4842
85.7893
74.6423
48.1582
25.2285
183.2
48.62
101.915
49.9245
63.0012
170.46
3.97563
22.183
103.71
105.938
46.0263
60.8475
20.1641
94.9226
21.198
51.3634
40.8459
77.328
60.9414
99.0467
67.3394
122.774
89.6279
64.4487
116.545
63.1711
35.8231
149.938
104.369
92.4326
117.186
21.6993
147.101
103.042
38.4422
59.8657
110.989
48.2309
89.5073
55.8695
67.8966
90.0061
22.3658
33.9772
69.3993
55.289
98.5835
98.0538
132.63
169.906
131.583
86.2731
86.3292
132.718
47.6878
22.4013
54.1165
102.099
171.735
95.7949
149.63
113.301
39.1154
82.8339
89.9995
185.355
99.5628
126.683
110.123
51.4387
55.2736
45.9707
69.3899
141.001
84.9823
107.071
48.6498
95.025
50.5496
26.8758
30.7326
141.659
81.1794
52.2302
27.887
50.0606
10.4619
96.1981
79.183
26.9885
134.667
101.867
124.538
126.082
34.9815
37.7442
121.676
49.1796
99.1165
37.4534
52.0874
34.3042
68.5338
102.58
205.522
42.2795
79.086
49.6216
90.1648
75.7859
45.3234
27.4394
39.8042
70.1248
47.4382
49.3806
89.0342
92.4035
133.522
121.367
63.994
27.9908
73.3099
135.614
90.9905
176.384
32.7617
154.087
41.6337
72.6874
124.586
193.423
35.6327
31.7898
93.469
96.253
131.908
226.335
101.816
83.4463
58.9863
111.826
63.361
99.2638
138.142
99.2853
142.124
107.635
62.0591
155.504
87.2914
68.4389
127.933
128.892
67.2934
78.9731
18.3243
118.28
95.5821
174.268
0.687785
98.6148
18.628
109.665
3.0151
14.0665
36.3046
129.165
90.3342
85.1137
71.3205
178.622
94.1912
108.436
62.8191
142.612
153.66
62.1986
78.6847
146.701
28.376
77.3722
77.5914
91.2521
66.4988
45.2746
105.142
130.099
53.4989
69.5783
52.4726
97.6812
169.252
74.9801
59.5047
55.9837
23.5862
41.2165
181.322
43.6902
156.955
37.4141
53.663
62.6662
70.753
128.294
24.8209
124.706
18.7226
53.1708
77.3806
117.003
79.4899
32.5073
27.9566
202.284
73.5066
122.248
68.1815
105.45
147.388
107.498
207.37
75.047
65.7654
28.6465
98.3637
38.0676
43.3044
73.5093
147.473
94.3316
101.956
87.9501
25.9316
29.3621
69.7092
46.3491
89.3656
90.1589
46.0479
158.955
80.034
124.05
33.6264
191.249
183.639
41.7145
169.01
45.9229
81.7729
14.8941
75.6022
180.265
169.734
86.9955
123.133
75.6525
48.7523
103.548
52.0384
127.002
166.541
54.0334
115.952
131.946
107.639
42.4723
61.2301
60.7851
127.522
157.007
134.31
134.238
171.167
37.7584
108.524
94.821
73.8566
60.9806
112.641
162.274
60.2912
38.351
95.1917
107.948
160.967
50.2331
50.3662
187.195
37.4883
116.035
76.0519
36.891
120.893
43.1648
81.0993
114.652
149.803
71.819
128.392
103.828
45.2857
46.9885
156.305
108.225
44.9978
119.281
86.2179
94.0542
81.8721
90.1134
7.89285
46.9552
110.69
30.0367
81.7334
41.8795
158.78
25.4172
83.2616
80.3856
94.5918
165.462
112.765
47.6434
115.981
113.481
178.327
161.166
94.3889
47.7102
25.992
33.0469
122.525
143.558
54.9526
65.37
83.6575
160.774
78.9174
107.553
71.9571
25.3233
99.5804
88.9688
101.4
70.4045
118.427
78.5816
107.177
120.496
110.424
83.7806
67.9267
109.744
53.0806
62.2048
14.8297
28.0485
41.7152
101.803
69.1348
54.6456
94.6602
119.578
77.321
43.2107
7.27278
62.8842
92.6276
78.8754
91.1451
122.818
59.3344
218.976
55.2656
74.5797
15.0866
65.296
127.38
57.5549
144.348
23.9117
10.6264
68.2112
80.9575
82.3337
168.206
162.993
117.557
30.1282
63.2062
35.5641
34.1092
111.731
82.5597
89.3512
146.865
92.8219
57.1617
46.0045
54.8284
44.7868
72.5604
75.1046
95.6476
109.96
44.6833
24.5571
130.052
140.695
96.9757
35.9396
57.3459
65.7342
118.958
57.6426
53.7834
141.74
107.745
114.511
62.3948
1.49711
126.933
103.595
82.2765
22.9869
50.2469
92.2043
57.4306
88.056
129.659
92.949
75.0924
106.948
62.5737
43.7952
66.1328
85.8577
99.3078
44.823
127.88
203.752
55.9863
31.9805
31.0053
14.5557
36.454
56.0975
72.9605
36.4659
88.6226
177.238
49.4683
86.12
95.6669
24.6544
38.9724
189.103
69.3518
66.2975
51.0359
106.976
111.524
99.0719
119.869
109.231
164.377
39.9732
54.7421
89.7033
116.658
139.382
53.8914
37.1507
120.043
21.5148
104.766
66.5515
14.8663
142.798
97.5692
72.9712
13.2439
155.983
14.4028
102.806
97.7279
96.8682
122.157
186.315
111.368
188.131
42.0296
91.1061
40.9084
84.4283
116.402
73.87
112.255
115.956
59.3311
159.672
38.2888
108.364
55.5426
27.096
71.9098
48.8208
57.2329
115.839
48.5602
102.176
122.6
50.5824
122.117
65.9829
43.5165
109.267
78.2715
62.5155
132.274
95.109
69.6208
89.2736
98.1543
25.0225
38.1304
58.6005
86.2617
53.2201
183.847
116.337
45.6235
117.735
72.808
152.643
74.671
109.885
34.0292
84.6284
33.4646
51.4842
116.192
83.4815
57.6047
109.561
55.7046
74.8254
32.8158
119.681
136.232
100.242
10.0024
65.5594
73.5077
43.2126
108.424
59.2685
49.9468
47.2511
46.3381
144.076
66.7678
59.5099
60.9999
145.873
78.8985
132.337
128.048
71.3578
98.9473
101.272
30.7857
50.4709
72.0158
42.6589
159.82
90.6682
128.562
67.6766
41.118
76.9816
38.2417
136.895
76.7627
128.457
67.8413
27.4692
71.3322
67.3298
67.5663
90.051
54.572
123.108
167.339
82.4543
98.4643
12.5434
70.1519
52.2887
106.583
32.2511
93.6281
154.188
82.2228
27.2156
99.0115
118.66
154.089
62.1456
126.565
46.3199
5.16777
133.523
116.579
79.2844
128.645
108.519
108.389
108.529
133.673
13.9152
60.5367
65.4651
88.2492
104.841
39.4449
91.8964
81.2048
55.8577
210.318
73.52
35.8987
185.751
70.8434
53.5986
64.5356
32.6949
71.2169
142.779
57.151
59.6726
24.7047
26.1398
78.9836
60.9114
126.707
37.6925
90.2465
42.1377
82.3676
106.74
140.723
90.4752
54.8682
35.2113
106.895
74.1934
59.2217
74.5259
81.9656
57.8083
89.3832
17.9409
86.9358
45.5327
71.6403
108.153
38.0924
21.4684
52.3821
15.5562
51.7922
116.132
171.784
92.9579
208.459
56.0274
52.9812
46.9639
275.018
37.426
42.5712
49.9177
75.7307
9.95007
127.501
91.3599
30.3147
24.9964
75.9314
139.157
119.335
61.1708
31.486
145.71
24.0274
87.5093
71.0266
78.4535
146.58
120.566
72.4231
107.685
75.1977
68.5674
151.467
116.013
132.285
59.5778
168.663
217.992
33.3432
68.3174
146.033
78.69
26.0129
43.8131
105.717
24.8987
197.791
210.239
133.178
64.0307
137.087
97.9989
123.27
130.492
98.5567
86.8682
116.519
223.244
34.2428
33.9834
139.591
47.2523
93.1642
83.7733
22.7585
71.2675
100.239
197.481
123.973
38.6389
67.8049
21.8781
48.2771
23.8064
63.2767
203.136
90.5627
69.1284
49.4475
109.891
45.8997
52.0921
62.5263
93.7289
61.6821
117.644
55.8481
94.7309
87.1236
45.2288
50.6398
93.5684
64.8837
58.2235
46.4619
133.472
68.2836
25.4899
21.1621
85.1434
92.1584
66.6062
43.4002
110.723
77.1885
92.1531
55.0484
98.7378
199.145
161.858
61.6327
182.906
67.9833
89.9145
6.40282
69.2098
52.4456
89.4125
58.5194
64.4149
163.785
83.9912
112.855
85.3059
89.1405
154.643
117.266
102.508
96.4058
96.1497
125.896
63.1108
34.6983
48.9142
45.816
24.1438
39.7551
122.038
86.677
47.9061
88.3181
112.824
67.2077
182.283
130.602
17.4331
129.297
233.616
123.907
79.3895
37.287
152.305
91.6441
119.764
24.1419
46.334
20.9466
78.3329
66.518
13.9909
69.6676
157.076
102.677
76.9576
30.4177
97.9724
46.8774
56.7805
42.8347
79.2615
116.488
17.5358
32.4196
81.439
99.5043
90.3054
86.379
79.6415
172.712
65.7912
95.0789
110.056
169.002
20.6529
53.119
51.5943
52.1386
93.4605
41.9795
43.5891
10.5442
73.3569
192.392
100.452
78.946
80.1967
56.9502
77.2185
113.668
138.608
42.281
120.503
105.161
54.6353
37.0025
55.2779
56.9395
148.657
51.8525
58.3598
51.7532
42.7327
140.071
114.428
70.3811
60.576
44.1212
95.0427
113.892
58.9431
98.0556
94.8994
14.0755
83.296
62.2598
157.768
125.579
124.373
69.9413
119.774
39.7615
118.716
43.2993
88.1947
40.7648
16.4754
106.959
63.7825
14.6656
83.3425
146.436
63.2094
90.5867
30.2424
89.4078
89.4898
103.225
45.2965
101.036
30.467
172.034
53.431
55.8176
111.138
126.931
88.1143
74.292
16.9853
80.5799
35.1072
80.3855
167.379
104.868
159.85
81.2776
140.967
31.7798
69.3586
115.738
75.9656
82.9451
23.7714
90.3232
129.622
62.0774
15.9245
18.1056
20.2587
47.4988
153.341
54.6959
77.64
126.748
78.6248
41.7984
82.8736
61.1451
82.6013
67.0199
93.5315
73.9861
36.2062
187.955
50.233
48.0908
81.8997
60.0995
24.0894
30.4155
155.804
17.4861
116.756
65.9055
69.6819
134.622
53.5774
20.0176
114.808
69.567
95.4233
100.022
115.255
74.3874
21.8058
25.7924
91.2683
93.3323
108.248
28.7711
87.4379
122.091
69.5787
106.165
26.8807
42.731
105.526
85.5423
114.581
88.5395
78.6948
57.3656
55.9325
87.4843
58.3208
67.8054
58.3694
93.579
100.694
83.712
114.376
97.4635
131.68
63.7187
47.0309
64.3377
57.936
57.1736
22.9767
84.4829
71.1403
38.2149
182.474
65.9258
74.6805
63.3123
91.2141
48.2999
115.268
83.8246
82.5627
24.9175
53.1577
19.818
57.5531
91.0588
94.8045
107.264
107.752
39.0299
122.833
73.5494
14.4056
90.1191
68.2735
44.1398
177.644
48.2766
61.4102
67.8876
66.9751
32.9634
170.625
205.355
94.284
167.234
151.75
75.9257
11.8967
173.035
149.213
46.8768
158.629
60.651
44.7646
104.083
58.1577
40.1112
9.54461
100.991
67.9506
119.22
71.5572
57.6019
74.2718
77.6315
12.3229
36.2331
139.721
52.3262
84.1824
176.136
147.634
52.9748
77.7752
46.7084
33.0364
125.665
134.93
90.5072
57.9691
41.0674
80.3335
61.7634
75.1745
36.7687
82.5102
25.1238
74.3456
53.8452
67.7774
100.693
43.1175
85.4949
9.56323
88.6783
139.794
164.302
101.795
142.918
161.611
103.773
102.349
152.144
84.1936
106.303
34.3467
80.2001
98.0067
35.8176
51.645
33.4893
108.545
50.7964
16.5469
22.2322
95.3046
87.6015
53.8346
118.579
158.821
82.8163
87.8761
56.3818
51.3069
85.881
80.4737
80.6532
74.2961
111.94
72.8007
45.0234
55.3026
232.162
15.8551
52.6567
26.8053
36.4124
183.557
150.264
113.586
127.171
128.096
108.964
144.339
17.76
73.12
72.7603
162.553
131.251
142.668
112.783
121.223
51.5065
58.9036
31.5175
88.0532
22.9836
61.1663
52.1005
86.8481
99.0962
77.156
76.6625
127.582
111.808
19.6756
198.5
40.5959
88.7701
65.847
115.888
9.15208
84.4498
115.291
50.8581
55.6063
108.665
86.7287
61.7339
88.6291
44.4041
129.501
28.903
56.548
104.027
109.462
56.6312
107.357
21.9133
97.5901
30.9132
85.661
95.7154
63.1899
78.138
56.5341
37.464
68.1901
119.229
136.177
86.6501
72.4866
101.038
93.742
86.1139
28.8733
42.4254
105.647
52.2218
64.0665
25.425
33.0186
151.296
122.57
76.9791
74.5259
125.484
40.6832
83.1422
79.1663
16.1171
72.6237
40.0378
96.8844
138.178
84.9979
141.811
146.071
53.2769
68.795
90.9847
41.9435
194.042
71.8277
61.2204
59.522
55.8313
50.1006
62.2459
104.277
100.501
96.0147
139.984
74.4664
121.878
59.9984
50.7087
50.3212
70.6465
65.6511
22.4674
95.7425
16.2062
134.168
112.436
98.6053
143.533
119.493
44.0512
56.6241
92.6228
66.0806
47.27
138.601
108.503
87.5949
36.9945
128.787
115.159
140.697
113.037
17.6713
127.952
71.7339
59.4643
117.084
43.8872
89.0746
167.075
58.6317
45.8499
123.685
124.241
79.8684
99.0578
37.6134
64.6876
59.0232
37.0401
39.3515
91.367
72.9915
52.0295
53.9526
135.867
113.219
75.8636
33.8817
38.4262
134.271
39.8556
127.902
108.624
168.282
67.4743
96.2061
112.229
46.7068
83.9346
130.522
97.3805
100.407
22.183
168.733
57.5665
86.8567
47.0357
55.5262
111.483
31.4204
135.907
72.5
81.9422
37.9784
26.3716
78.1627
64.1611
105.484
54.5951
45.6397
30.285
91.7667
98.8376
92.7277
90.101
89.3687
143.868
100.816
95.5167
76.7403
49.5512
174.16
12.3574
71.4365
37.6536
137.676
28.2703
35.0801
38.9101
39.0969
71.943
109.982
50.0696
120.871
88.1991
161.56
32.6747
21.3442
89.5281
84.4333
28.7256
104.224
100.92
41.5909
111.288
83.5449
21.0313
73.1864
137.19
95.9487
111.096
117.269
23.321
53.1868
146.754
122.108
37.4859
174.045
46.2493
130.071
47.3548
82.1499
66.8622
135.819
133.047
103.898
137.469
108.938
46.2872
34.0265
72.7481
44.2437
31.631
50.5053
55.5378
97.1789
27.7246
97.7832
76.4989
105.946
37.891
49.4769
92.6483
107.739
47.773
72.2412
76.3411
118.517
134.719
152.327
154.633
129.469
40.7251
43.5789
61.9978
91.3797
162.712
36.3565
66.3612
90.5146
71.7159
156.294
7.77973
81.4023
126.055
59.4679
46.011
74.9067
170.249
78.9103
48.2035
40.4177
75.8571
108.322
53.5985
10.0385
85.7177
28.8724
38.7121
48.9124
49.8618
82.1423
49.9227
122.835
45.6501
126.489
101.508
96.3788
133.354
43.6082
64.6572
69.1777
30.1248
59.5736
82.7159
135.153
115.729
17.8178
42.427
56.7377
84.8154
48.3228
80.3424
21.9931
167.845
111.685
60.3079
72.7612
39.7605
171.28
51.8855
105.239
77.2512
136.811
106.08
103.845
69.9954
141.905
70.5137
132.965
54.3509
46.5114
91.6523
82.2397
91.5475
77.6773
51.2318
38.0969
146.518
117.605
125.297
31.4375
74.9902
119.484
209.828
52.4345
79.2736
48.2763
59.0827
66.569
95.7083
94.9246
73.3775
80.982
124.635
67.7364
80.797
136.667
71.5421
17.4071
76.8975
161.53
77.4788
165.61
93.3329
18.2842
101.334
103.444
52.0598
92.3315
67.34
125.188
178.768
28.308
65.0524
99.4388
45.6157
58.5586
14.4642
87.917
92.3823
77.8942
97.7359
121.837
98.8765
59.2804
93.3504
104.967
82.5894
42.8487
14.3059
150.703
59.8597
126.205
102.154
56.9524
138.469
103.702
95.9358
50.3443
61.531
100.78
108.384
88.7547
44.9282
37.51
42.3681
148.927
96.0291
213.4
200.029
109.979
65.4199
43.6476
133.963
55.8902
114.117
43.2624
181.36
84.9737
16.1996
111.62
55.775
23.9983
64.4658
95.5917
80.0657
81.1581
113.713
50.9773
89.8499
91.3058
92.8044
56.137
54.4593
114.368
100.821
16.4845
68.173
52.528
75.1985
76.1265
104.884
82.4889
36.5919
67.5755
92.6321
19.0358
9.88018
78.7607
75.1809
96.7806
99.0259
100.038
45.6485
72.7751
125.61
66.1374
95.6127
114.197
61.5737
58.0503
126.836
12.2139
138.1
74.5435
51.6722
67.2892
55.1626
102.927
27.2023
114.193
104.234
79.651
20.1703
92.2334
93.6424
90.1616
149.763
106.306
100.676
61.2994
80.2658
29.0122
116.678
47.3439
92.1223
108.323
20.2013
40.2048
75.1508
68.8146
78.6244
58.0389
42.5364
64.5782
91.2416
28.6382
145.336
183.469
60.9724
83.8496
163.827
133.107
257.629
260.882
87.326
111.84
54.0727
64.5176
41.1157
54.1187
118.648
53.3676
93.7047
35.7948
52.5174
133.173
96.6007
21.127
67.7277
16.9956
176.409
57.3545
127.508
24.0405
22.1871
97.0179
106.082
147.46
45.0742
76.7457
47.5718
41.3458
24.546
26.2696
58.0672
58.0733
37.6992
172.564
73.7405
69.1868
80.9045
32.3593
75.9255
158.562
106.775
72.937
123.053
18.3432
13.7814
109.897
94.2572
42.4177
18.5884
44.4641
46.1203
180.431
21.6043
98.9191
130.277
20.3219
72.9357
19.5024
61.9767
95.9138
11.2023
122.386
69.2737
187.625
84.242
67.1139
100.156
77.1395
21.7286
171.339
95.809
76.0109
133.37
102.013
62.4101
150.47
107.248
117.488
110.454
141.348
75.7835
168.535
124.933
78.9453
62.0705
40.8681
116.451
119.411
101.869
95.4736
47.5223
58.0826
78.6868
27.8735
109.506
156.43
43.6713
43.3589
145.786
86.0106
94.9012
72.21
88.9343
21.3763
152.502
125.779
96.597
125.784
101.74
36.1128
98.7046
46.4548
53.3052
134.362
47.1791
26.0183
184.458
117.179
91.2848
49.112
41.9521
31.911
219.853
209.654
28.7494
74.8933
72.6421
76.0506
82.5689
65.7756
92.5912
96.2535
76.784
55.2641
88.0373
109.411
86.8765
87.0545
160.542
145.119
34.442
105.643
95.4102
52.5136
135.653
89.4886
138.315
88.309
161.34
22.7256
98.1465
146.428
80.2382
54.3542
102.525
116.447
140.293
91.6717
54.964
194.387
85.1808
14.9689
103.002
83.9215
147.271
49.6323
152.612
131.22
59.6328
71.9622
145.319
19.564
145.54
106.343
30.8207
74.516
138.054
46.397
72.8238
91.5263
61.0529
89.7919
135.2
123.476
94.2501
153.147
97.9003
51.3907
45.8404
117.945
66.1592
90.3989
64.7193
39.0043
32.6001
112.774
76.3006
57.1008
61.8465
95.8643
110.96
70.2119
99.1021
45.1326
100.684
102.624
49.3942
121.149
26.412
57.2173
65.7298
77.4314
83.2487
86.8185
168.252
90.0474
165.627
82.2844
56.7995
122.124
85.5577
75.179
78.3335
34.3441
75.7892
54.4391
121.898
42.3094
108.743
120.788
10.653
59.2175
70.0214
24.1485
101.969
133.795
71.5531
148.208
35.4328
105.322
56.8808
69.9809
64.8866
146.588
58.071
65.8591
71.8955
56.1506
85.204
29.0783
87.089
39.4196
169.531
38.8281
97.3871
79.1371
46.213
72.5373
160.214
45.307
57.4913
122.842
83.1925
27.2565
125.134
46.5086
32.6469
19.4003
115.865
32.1054
49.2739
72.2492
154.014
78.3436
40.9589
71.8119
10.5608
37.9216
130.91
25.5071
175.652
80.0024
61.9209
48.0545
79.5441
78.6554
96.6915
113.604
58.0148
43.9279
128.966
161.564
76.7873
56.4881
129.406
65.412
47.206
27.5277
35.196
101.189
149.572
129.032
83.7018
102.473
145.048
146.502
56.3667
79.9072
46.9323
63.6892
53.1255
100.391
79.7025
80.0975
23.4558
67.3755
33.5273
127.82
120.655
84.0054
65.5301
51.3481
57.2218
35.9795
29.836
74.7786
73.8526
95.5778
155.019
83.9936
108.767
89.1882
27.7417
84.1287
108.797
24.0371
53.1882
83.6597
108.427
84.4363
96.1436
68.7558
107.144
86.7593
31.0973
70.1638
150.349
34.9281
63.2481
56.9834
64.4887
100.684
83.951
152.523
98.0131
82.7734
196.422
117.516
69.8944
46.5293
49.5837
88.3514
96.6206
46.4709
129.719
118.668
99.8252
48.7691
82.9663
70.4493
30.0788
129.017
20.0963
61.1595
140.779
33.2849
10.8463
27.4968
94.3356
128.438
89.5788
155.469
58.6315
89.1467
61.1003
123.215
74.4832
116.416
114.919
81.841
95.1854
129.212
79.3805
77.7993
117.793
27.7085
74.761
52.9998
82.0947
84.0859
53.2042
118.114
120.769
33.5822
73.8376
43.4263
47.0588
153.932
86.6048
94.1048
52.1197
86.0318
45.3901
33.6335
36.1658
44.3319
82.3189
57.5389
166.207
30.7078
66.9287
87.0196
177.621
198.952
44.4745
89.5467
32.8792
33.2207
62.9233
102.203
57.9308
159.078
16.6832
57.8049
113.397
20.3507
36.5371
107.911
99.6104
67.1698
73.7688
60.7945
22.2571
111.536
108.547
48.8601
62.9233
17.6175
68.5593
133.197
102.015
109.214
39.4
120.597
98.526
89.1169
156.397
82.297
54.1343
54.6093
67.3311
99.5349
99.1395
81.1109
86.037
40.4947
111.705
34.9789
38.445
57.1149
148.308
51.8046
64.5235
102.943
85.6558
68.9081
100.074
114.467
86.0806
236.068
81.878
44.2762
53.8537
5.27008
157.719
100.995
46.5886
75.9781
113.906
51.2598
86.9056
30.6039
14.181
67.5698
172.697
190.907
134.895
20.1091
98.711
62.8752
64.3599
25.8583
26.5922
129.264
24.1691
55.2912
16.866
13.0466
82.392
90.5812
139.156
132.072
96.4202
87.0391
29.2684
86.6174
24.7869
22.7665
71.187
73.9049
20.148
80.2821
125.058
24.1368
70.5843
64.0187
109.138
99.0044
135.756
77.4418
121.895
122.577
34.1399
48.0575
63.707
91.7807
131.216
20.3188
94.0236
75.0176
49.1541
81.1738
57.5438
160.36
112.218
56.9731
34.1767
118.5
37.8099
57.7378
66.8283
51.3891
138.879
37.2511
98.1358
51.6971
117.023
49.5975
92.6077
158.029
19.1764
93.5757
129.261
120.44
28.52
63.0095
72.8455
118.672
154.68
148.129
134.714
116.017
114.371
31.7991
89.3217
54.5936
104.902
41.0481
62.6504
3.94101
39.4538
90.5443
102.331
129.032
38.9571
39.4235
27.757
75.719
124.503
77.5405
54.6921
88.0467
66.5552
77.6672
133.024
47.1657
183.677
51.0852
47.9496
48.0376
114.805
27.1246
74.1413
58.8028
67.2628
42.1482
41.6913
29.6153
91.2645
76.3482
33.3751
65.7746
88.0815
223.101
78.0648
78.3012
72.6489
73.7534
184.492
96.7474
42.0453
51.2928
35.7802
95.1622
105.141
114.049
70.6658
20.642
147.495
82.1539
57.8076
182.94
111.028
99.4813
65.8777
68.6599
49.5273
146.537
40.6183
31.2295
53.5467
52.5098
61.2957
85.3143
38.0375
106.225
129.689
126.376
102.139
157.864
125.753
81.4308
33.3362
112.946
29.1149
110.598
66.2728
126.835
6.0283
57.0687
76.9455
31.6939
124.879
44.8151
118.2
69.7263
124.112
96.9024
66.9634
108.389
173.359
111.935
105.44
85.1854
207.624
39.434
143.661
54.0944
58.109
149.369
117.791
40.2721
113.575
42.5215
141.524
22.4374
70.0003
127.496
81.7749
22.6849
150.746
24.862
144.703
49.4353
96.5239
80.4646
64.5701
98.8153
148.791
166.825
103.185
66.2899
55.326
89.1432
111.759
47.7848
93.7426
63.202
99.0734
106.457
99.2175
40.8127
64.653
35.8214
134.922
83.3906
51.8102
139.268
49.1783
73.3103
123.177
86.8943
31.4228
115.325
121.083
59.2394
158.231
107.332
136.676
80.7629
85.278
48.5348
76.0383
38.9783
67.3761
183.88
47.3261
66.7336
34.1242
47.792
22.7562
130.024
104.816
79.4911
67.7779
52.1641
87.4668
20.6455
196.082
193.021
94.1348
128.261
36.9928
117.705
75.4244
62.3605
78.5889
70.5567
131.042
129.787
84.4704
89.4198
6.668
80.2538
124.553
27.3161
144.204
63.3837
51.5353
141.188
57.6655
132.577
87.3153
59.3931
34.4992
13.4908
193.2
26.5892
33.9676
162.171
161.801
86.497
93.7766
76.697
59.4428
99.6574
94.434
81.8347
20.8065
46.112
126.668
64.0181
24.9994
147.325
67.1477
74.7985
44.468
171.326
53.4664
25.5559
160.58
67.4873
85.4897
130.921
159.149
45.0447
29.242
78.1802
171.83
34.2591
72.3198
67.2909
40.3276
131.556
106.494
153.618
110.919
59.9156
66.9625
59.7591
77.5342
86.5049
59.9664
73.9892
35.3573
177.692
143.089
110.415
196.369
34.6258
34.5115
35.0874
68.5778
44.1417
87.8171
37.635
56.9202
76.9474
75.0725
42.1005
54.6432
43.5139
100.385
15.2842
5.70406
162.601
174.209
47.675
23.2038
124.547
131.57
11.6162
92.9535
122.516
104.647
41.6608
84.0776
65.223
60.5439
47.2038
60.3156
88.0669
32.6397
125.322
93.1955
153.834
101.669
139.112
165.242
144.314
139.334
68.9424
22.123
79.97
54.2253
88.5
130.789
46.207
24.8652
123.019
151.751
118.307
53.7341
44.9326
91.7683
115.978
120.924
83.5036
46.4566
78.3376
110.471
154.022
146.32
178.486
61.5779
97.5343
71.3467
65.129
80.7901
106.678
91.2665
76.6591
165.581
132.582
38.1676
141.423
145.368
40.6781
89.5825
107.995
99.7603
62.7267
42.1586
52.3634
130.502
18.4275
34.1755
34.7709
74.9835
90.5457
63.0732
62.425
102.001
45.7892
38.597
19.9918
81.5085
132.468
131.992
26.1624
43.5691
47.1951
92.1892
118.109
127.974
50.1908
12.2902
67.3342
81.3031
135.208
83.2729
102.162
140.28
23.205
60.3272
113.515
51.5906
73.2258
103.753
93.9986
171.116
64.0789
218.333
28.5577
148.545
246.154
63.0113
172.106
42.2521
46.0199
25.3154
140.934
20.5765
77.2227
38.1017
129.774
156.287
51.4121
94.3307
88.2027
52.9246
100.998
40.0109
50.5157
107.09
132.201
72.9565
26.6527
116.047
32.8276
77.134
117.174
101.031
25.5738
92.6659
36.8082
52.5429
138.831
42.6407
75.3841
131.42
58.4174
28.4004
111.439
90.5658
10.9882
73.3595
40.7038
136.932
19.1611
60.4364
25.9199
131.943
69.089
130.615
101.14
78.4218
105.232
49.2419
128.097
93.8223
55.5848
96.1308
68.6764
38.1861
80.3273
75.0757
54.4291
52.1871
13.9923
68.598
21.3309
60.9694
70.1994
108.969
27.4795
116.506
17.2773
112.033
62.9342
47.7545
63.3234
93.2605
24.1851
72.9204
19.8073
78.1924
62.7955
124.623
65.2195
66.2179
57.5796
102.331
80.5198
128.958
52.9989
75.6458
25.416
4.69627
178.376
34.1121
94.487
35.3484
185.259
43.1867
54.9167
86.5825
127.269
64.2172
81.1735
96.4391
68.1083
30.9198
76.3087
113.975
50.2269
143.982
101.101
64.6175
76.0423
54.5519
107.549
63.6086
147.529
139.844
90.8845
82.0322
125.717
89.0426
96.0891
5.33376
106.141
184.096
25.3825
71.7973
28.5493
48.9941
83.5252
92.367
69.3008
134.854
101.758
49.9839
80.9533
69.6651
134.105
78.0008
35.0232
76.4077
55.1533
73.6986
69.1024
125.19
132.076
39.1725
124.704
71.1081
5.43371
58.0149
103.125
91.4853
139.917
6.81131
47.7797
32.2719
101.068
67.9368
76.0895
107.401
62.3635
19.3423
28.1488
57.1754
101.954
206.216
50.0644
137.825
80.2812
109.901
160.016
14.1573
94.0276
58.5795
109.079
106.252
43.5646
83.5811
75.5937
44.0753
85.5755
54.2
24.1972
40.4718
117.786
71.7062
84.6377
21.7067
163.047
28.0262
59.6415
69.4307
109.268
39.7834
13.675
84.1363
32.6206
59.1112
97.6712
203.558
81.0427
46.6134
105.614
39.7824
57.8944
65.0682
190.341
97.116
53.1093
36.1856
74.168
116.991
112.382
80.6911
88.692
106.57
85.3723
110.13
26.0367
85.7291
39.2439
145.004
116.385
60.0974
46.5918
64.7246
13.9348
131.309
87.5863
86.8732
33.9736
56.1735
95.3367
26.3676
60.7562
101.218
47.0887
139.742
26.7872
152.313
24.5462
84.0818
26.4122
31.8143
98.4927
29.715
131.419
212.129
92.0783
34.3223
128.417
63.5174
173.664
117.904
82.0015
47.1632
99.9711
49.5383
134.426
58.5186
97.8992
38.1263
32.7372
33.3528
152.13
148.899
8.79203
44.1343
95.2317
54.6288
75.046
25.4618
94.8713
52.7607
122.592
133.907
93.56
68.4667
80.9903
103.978
123.514
83.8753
57.0241
6.38504
63.0397
75.5411
159.342
83.4014
58.2794
113.975
160.352
60.9913
20.306
53.0062
27.2478
67.0921
77.2004
46.7045
26.1082
23.3566
79.4212
107.74
43.6895
85.372
50.6765
76.9049
58.1032
96.6616
205.042
30.4047
198.639
93.9576
28.8042
170.874
44.7999
118.242
89.9715
93.3131
93.8209
160.321
116.237
106.912
106.255
124.729
39.3058
34.5147
26.8573
51.6099
24.6077
142.636
103.675
81.2708
42.8486
45.6842
8.23223
165.59
25.8623
50.8844
140.079
75.887
103.315
86.0512
72.8176
46.9888
67.6385
108.26
70.8587
154.983
121.533
46.4611
80.852
78.0606
107.519
100.145
115.427
146.906
14.5612
23.3905
71.5288
93.7131
92.6789
20.8453
69.5922
151.939
180.547
108.692
48.2909
54.7295
95.6648
26.4314
51.8641
69.994
98.9541
121.946
43.889
47.7678
116.574
61.4158
29.3958
61.0564
14.6686
59.3426
99.0826
7.65357
63.9101
111.527
46.983
58.4744
74.3873
108.582
41.2236
29.7083
116.573
17.5907
37.0284
103.518
40.6981
24.9727
38.1394
143.398
6.74753
112.649
183.828
67.6992
112.629
93.6239
99.5341
88.7354
100.129
53.9944
25.488
71.7147
60.9093
74.0749
121.674
122.881
77.9712
43.9527
94.8467
36.0495
87.4476
35.2735
19.7095
91.5769
49.772
36.1226
75.3172
53.1724
93.3397
141.352
124.542
94.1209
127.005
94.4331
80.5851
58.8727
167.402
31.5934
205.086
46.0929
41.0407
99.4719
54.8267
2.0016
54.857
54.4741
83.6742
74.3167
95.359
35.4047
99.2348
65.7596
65.6114
90.2021
59.9289
11.2385
58.4725
133.961
81.8085
122.639
88.4088
172.079
170.575
77.1873
89.9971
33.2765
137.213
104.187
107.038
100.439
96.3396
124.191
129.632
45.0952
83.4789
116.733
26.0336
83.1758
116.497
31.1102
50.9413
50.8391
123.818
34.0691
68.0012
131.836
91.9233
27.0853
47.1709
19.6303
57.3447
139.696
51.6843
63.7028
42.8367
29.7499
161.975
130.286
99.2444
152.192
77.5863
115.664
170.764
84.8114
80.1521
172.591
68.8757
96.3819
156.672
101.576
177.44
70.6505
150.543
44.7004
24.5677
67.8521
106.766
84.5295
164.015
53.5667
110.771
96.046
162.308
116.861
92.1119
132.963
64.2734
32.9508
53.0853
85.741
68.2718
131.646
150.498
73.0358
18.8146
61.2041
47.7597
38.5852
45.4216
25.147
44.7287
15.9458
16.686
59.8878
130.778
111.838
23.0785
61.1759
84.4112
67.6283
64.2176
92.7455
37.7304
49.1792
60.6965
69.9212
97.7853
149.477
9.13908
150.491
122.676
78.9903
29.4151
69.2176
117.286
78.1429
99.9076
51.0284
131.799
192.57
142.575
61.0936
139.912
87.3079
23.4163
90.1674
121.161
49.7819
130.305
126.421
43.7063
43.2037
59.2649
74.6808
59.8523
24.105
138.387
88.015
159.569
67.3288
104.198
176.875
60.7594
125.344
41.036
145.863
186.418
257.284
95.4472
114.098
59.5873
52.9632
28.1012
43.3357
45.0721
108.149
55.6942
32.4752
91.3549
23.9825
80.9354
121.123
74.2003
125.108
26.2568
7.0775
114.021
262.347
133.762
16.3905
45.8827
84.2495
41.5343
171.529
131.351
104.502
72.4279
114.83
32.3874
68.7358
28.6067
92.447
40.8251
80.65
123.516
36.3872
70.3104
122.649
111.467
48.0824
148.766
60.979
29.7721
16.5767
159.511
109.677
158.697
46.1284
89.2951
98.736
47.347
47.282
46.6414
140.053
34.4718
94.4141
106.546
103.416
128.882
114.34
48.4788
23.4207
102.53
49.2867
97.5332
153.082
69.6554
76.888
184.658
131.933
33.9545
74.1652
118.969
147.318
98.1033
62.9662
108.432
168.01
131.628
72.3025
50.8815
35.9391
62.9191
30.2424
45.1437
122.795
47.0812
69.1072
48.4623
89.4794
143.429
83.346
38.2258
27.189
47.0572
103.224
58.6434
170.428
172.283
170.004
14.4783
65.3107
47.4519
38.6068
66.9818
67.9869
91.2192
103.383
169.076
57.9938
54.2125
91.3172
105.991
51.903
58.1681
32.0003
23.3189
35.4519
34.6991
35.2609
137.133
34.1299
53.7029
92.083
94.3514
86.4238
51.2471
145.688
69.3953
91.0289
51.9815
66.9684
105.297
26.5299
55.4745
36.431
76.63
76.1661
98.2747
44.3361
55.197
102.623
95.3067
51.5921
221.385
38.337
27.3167
70.5468
104.912
60.1646
74.4114
89.4013
31.16
52.4699
144.188
103.802
63.4754
175.175
71.7616
37.4014
104.099
52.1792
11.2808
59.9826
96.6968
69.6523
88.5702
119.236
115.74
65.5107
102.027
78.7995
127.503
61.9444
31.7971
50.6777
83.0868
34.0016
41.7254
90.2792
41.2319
126.625
86.5976
110.658
38.8137
