Bruker BioSpin GmbH: the minispec
DataType=1
DataLimits=-81.9672,81.9672,8192
DataUnit=Freq/kHz,
c:\users\student\documents\nmr-apps\fluor_ft_pcii.app
07.01.2025 16:53:53

71.5466
47.6656
43.9795
77.5161
111.861
152.339
10.8712
72.6819
89.2411
47.0692
65.7
135.417
104.054
29.0958
25.6804
148.539
132.826
77.5747
101.108
79.8489
92.8676
108.569
93.6211
153.988
77.7135
28.2457
141.766
75.7134
148.411
155.319
49.604
78.5024
98.0655
55.3504
44.9674
70.1341
33.6579
38.1682
209.035
100.288
77.6463
105.9
42.2159
45.4995
64.5945
29.0167
43.5033
106.523
108.974
127.48
33.6363
70.6373
52.0209
80.5281
169.173
32.1453
55.3089
54.2474
193.605
1.26262
102.719
126.349
64.4625
123.502
160.079
72.6072
47.8908
155.629
115.654
112.725
130.396
103.873
59.8429
131.048
118.034
75.2101
72.4602
9.85725
134.476
90.7828
176.916
153.098
108.487
137.894
67.0146
62.0543
60.3792
90.3131
103.756
52.8661
63.1843
95.6918
39.7327
143.06
51.831
118.131
123.966
63.9655
64.8138
117.129
39.2995
79.3036
65.2722
78.9467
76.1432
113.322
209.919
79.6458
96.475
83.9722
93.9664
63.6022
32.7307
102.057
122.397
101.441
84.6521
79.4942
93.2325
132.137
58.1988
175.579
124.342
116.774
107.525
97.8236
156.111
156.567
41.8047
60.811
79.1475
90.1569
46.3653
154.839
103.524
104.336
33.7867
31.7844
43.7956
114.723
118.07
11.0001
120.788
52.448
75.8176
156.618
81.0485
108.684
63.7116
77.4262
64.6412
18.3167
88.0641
76.6644
157.494
16.6533
96.5107
77.8054
81.4428
64.1792
39.1877
227.14
135.873
31.9916
52.2347
80.5401
45.0145
118.323
98.3967
151.405
84.4469
45.0749
51.3496
112.326
35.1957
41.9663
157.729
65.1199
119.758
93.664
75.5386
117.343
180.424
96.7765
4.83708
93.3526
81.9509
45.6673
56.5781
33.778
33.2213
14.9378
124.635
63.8033
50.8424
99.022
36.9407
38.1943
139.146
114.253
84.9572
64.056
19.9145
105.214
88.6225
47.8142
146.077
63.2281
188.938
37.3065
51.5575
55.6569
102.451
97.6708
163.979
70.223
51.8209
34.2059
133.446
39.9786
64.7312
109.65
109.152
79.2561
88.3712
13.1362
68.4396
100.529
74.3727
79.9675
55.7948
136.933
122.2
25.7533
133.022
138.346
97.787
134.796
55.7246
62.2545
110.432
160.547
112.921
129.869
108.853
168.437
77.8178
84.8545
62.2416
99.0532
111.052
13.7015
77.5584
30.675
55.3667
61.9868
24.2383
105.661
174.15
42.5595
18.7167
148.366
88.2009
31.6237
100.255
28.0351
101.971
13.6573
69.8814
123.829
128.741
137.36
134.622
111.22
64.6791
116.728
77.2753
73.0095
179.425
49.0591
173.895
32.0217
75.8635
47.9702
82.5808
10.8221
53.0777
53.2091
139.506
73.3329
66.3789
65.8775
111.165
47.6231
35.5609
23.9413
11.8647
165.313
59.5387
122.293
39.7935
91.3287
80.3246
197.288
166.355
85.6027
30.2264
103.396
84.6139
31.8022
60.5676
86.9328
115.055
35.9626
122.94
26.6258
72.8875
61.4033
66.9246
120.902
143.66
145.608
117.039
35.5001
75.3195
29.7192
100.792
55.5649
36.2177
80.1511
83.5735
51.7134
68.1908
48.2455
47.038
70.581
143.007
50.8058
127.996
110.954
151.156
44.7042
70.6576
156.322
123.889
25.6047
98.6876
95.2305
71.8677
71.3911
44.9633
55.9566
166.718
58.3298
62.4335
89.0885
23.6181
178.205
125.082
7.88495
76.4759
78.0559
35.8416
28.4111
144.365
122.24
71.4145
42.5087
114.023
94.869
84.2089
80.2746
60.9008
72.5851
40.6961
51.1248
107.604
57.0059
76.0248
77.427
85.6876
47.5579
73.9062
170.139
94.1548
67.1766
82.8757
73.0327
153.641
106.552
44.6848
29.2207
113.736
126.068
116.922
78.5795
21.1794
47.9909
122.339
101.807
76.5674
42.4245
122.605
60.0912
66.4528
103.733
120.064
155.268
79.1856
55.7849
56.0118
143.691
65.5366
52.28
62.3849
78.2464
105.389
47.6804
89.273
83.4508
90.4597
89.1437
65.1798
62.348
53.0842
76.9497
17.128
117.227
63.4852
32.9884
116.033
100.327
83.4898
172.339
44.8675
88.8382
24.0916
152.474
96.8757
124.906
45.6916
98.0228
71.0154
64.4532
151.511
52.3732
89.2985
25.1055
110.364
51.165
104.88
61.6298
95.9211
41.2359
44.535
72.9338
62.1597
37.5783
104.942
132.438
8.46174
77.0394
70.6417
92.2345
77.0718
65.3088
47.3951
18.978
171.223
91.7005
44.71
43.8662
23.3604
118.17
63.0099
158.669
135.041
35.3463
192.984
74.9636
74.4286
106.994
51.4192
20.532
34.2346
91.7539
63.4827
140.467
75.209
92.5946
100.03
60.4388
76.6362
112.573
183.618
91.1224
162.176
82.384
67.5692
99.8524
108.926
120.911
84.8974
55.2467
101.593
34.4168
91.4377
110.322
58.6148
30.3963
72.5506
113.417
110.884
97.0657
74.1883
87.7812
55.8307
159.136
75.2601
51.0513
91.6686
45.1837
64.3706
29.4978
53.1668
125.108
112.611
44.4293
110.683
59.4278
56.6279
83.2947
54.9337
41.269
74.8747
130.194
158.137
8.05656
65.9417
76.9378
28.638
79.5694
111.534
144.213
106.157
46.3562
30.9285
40.5111
34.9034
92.9109
115.949
47.6364
137.191
98.6486
78.2066
97.9192
277.116
138.084
101.801
46.0738
72.3679
187.556
86.4973
43.1925
25.3341
31.1196
122.349
96.9856
7.85349
1.98012
75.74
71.6446
60.3361
56.6098
168.881
87.9068
176.076
68.8401
61.081
65.6326
58.2025
62.6359
178.425
103.305
110.254
128.513
69.2967
101.734
84.8177
55.4273
55.5271
31.6232
83.247
55.8272
69.8097
53.3343
64.3638
66.287
107.117
32.7918
98.6801
47.5701
177.908
64.4198
119.878
132.056
98.6856
87.1668
111.97
202.892
147.727
119.375
81.1924
102.705
89.835
38.7346
67.752
46.4261
177.266
91.1773
129.084
64.6775
158.274
86.1948
117.894
88.0561
62.1989
149.111
88.0324
67.6576
84.6175
92.0193
34.7376
115.962
28.583
52.7622
71.9462
115.619
73.5688
136.908
43.5373
71.6313
133.645
106.129
80.7959
64.2456
48.9403
67.4484
98.1088
105.279
84.0865
87.0893
43.1877
48.1179
95.9594
57.611
14.1967
103.082
97.8872
66.4158
90.7442
52.3279
58.8729
130.596
145.023
131.246
158.892
63.1712
99.8792
59.5405
97.9717
25.1772
54.9746
30.3361
122.722
67.7935
19.931
86.0712
50.671
40.207
91.9272
33.1002
150.005
100.366
142.609
10.6168
99.6419
150.715
26.3626
93.5522
143.444
26.7123
27.8563
59.3593
159.95
119.009
175.497
168.162
21.7088
147.554
36.7872
142.159
24.6052
53.1024
113.984
105.094
86.3492
77.1756
33.2332
118.395
98.7675
30.8659
85.5511
41.6908
143.327
102.255
92.6522
78.6063
183.166
53.4344
77.3219
35.9815
107.038
147.628
80.4111
136.499
109.89
185.435
83.3595
60.1095
153.664
33.2477
64.5469
80.8157
103.936
15.4686
159.942
79.8064
84.3843
62.3009
20.4271
52.5138
81.0744
208.332
136.61
146.789
74.011
48.4739
24.2152
71.8907
73.3648
127.736
97.4747
157.895
39.7552
122.844
89.1341
135.053
136.236
93.0113
58.872
4.58608
56.8392
100.082
117.519
40.8453
63.9379
82.9063
106.282
134.817
43.4309
45.4321
119.188
71.592
87.7681
89.7174
34.8177
94.9654
152.487
41.9969
94.9821
100.238
106.662
30.7856
69.2945
226.801
53.4872
13.8137
44.0164
94.1268
104.948
118.137
78.9872
77.9904
74.5763
49.0167
60.9038
71.1959
69.1706
92.2394
68.3076
56.2525
23.611
129.277
184.279
88.3576
99.0092
78.2677
107.496
187.244
78.8622
88.1211
128.828
131.097
75.6705
62.7253
81.1829
73.1371
31.007
12.6629
58.5456
66.8169
54.4574
21.5741
50.0244
85.9203
110.731
66.4448
76.8661
125.184
72.1548
83.827
28.955
21.7211
19.0034
59.4575
30.0584
91.7444
138.565
26.8419
141.935
93.4915
28.9376
49.9445
70.13
174.789
106.858
48.8848
99.8813
73.9482
32.0975
122.412
70.9534
95.359
94.8278
56.9408
168.957
81.1033
116.293
98.6637
88.7524
96.4025
106.171
121.782
139.954
110.682
15.6285
236.401
72.9819
18.7611
58.3058
74.7847
111.602
105.111
27.0277
95.5476
90.715
94.4442
91.3756
48.9615
30.866
105.001
141.243
169.025
61.0509
6.92896
101.237
23.6297
81.052
56.851
63.9996
109.63
139.236
98.0237
75.761
43.9401
40.9186
89.0286
132.015
31.1999
131.585
70.9177
113.613
79.2511
95.9883
119.899
63.5136
39.6771
65.0774
130.309
68.1225
40.2521
64.5845
95.1985
51.9116
39.5802
88.9814
71.0776
75.655
83.5953
99.8234
58.2669
38.1031
149.517
86.6884
38.7491
93.4521
153.542
54.3838
60.8526
58.5794
20.0867
27.279
122.469
213.361
45.1661
50.9859
17.9163
93.335
21.5268
38.9473
86.0189
133.112
103.658
142.311
70.8004
59.7433
36.3435
75.968
121.808
49.5461
45.4565
56.6479
68.7256
122.368
151.646
163.837
46.8102
79.5872
40.8326
62.9186
85.4307
180.775
61.092
105.952
80.2305
52.0383
76.5141
14.663
18.5028
77.3127
76.9059
143.809
110.055
28.2379
72.352
64.1228
62.8282
141.484
61.3964
69.8268
73.4819
97.8478
41.8357
63.9574
39.5176
123.013
62.5685
50.2324
52.7394
52.3875
80.1296
51.1715
98.1031
118.878
90.7247
102.353
90.4289
162.332
201.574
97.7794
70.2153
172.55
115.794
102.205
127.036
18.2528
133.543
138.322
42.1514
40.6562
181.667
125.41
33.9256
87.9775
99.0331
82.9661
12.4611
109.494
211.998
54.6905
67.0116
62.8234
183.39
42.2938
109.155
51.6731
36.6606
49.1036
57.7327
101.651
183.966
51.8955
50.3736
6.50575
62.6016
127.101
51.7476
32.8502
58.684
163.423
7.93396
119.609
24.8509
31.8387
121.696
106.088
25.9658
81.7153
120.622
70.8531
108.487
114.366
171.496
17.9743
80.2462
132.695
19.9585
127.048
84.4675
134.742
55.3105
54.372
89.8283
178.765
36.6437
92.3605
132.661
168.971
61.6322
78.8139
23.9375
114.852
87.8208
42.68
87.062
79.6889
159.36
128.486
16.9092
101.413
95.1506
116.674
91.8672
58.2081
48.362
57.0592
127.305
43.1807
25.9049
37.9878
164.704
135.218
95.3997
45.2623
40.2871
69.5957
210.959
112.748
76.4134
125.468
3.78525
156.347
90.8117
124.132
95.9345
30.4975
31.7552
82.7987
59.992
45.941
106.924
58.939
97.1767
53.8001
48.0895
50.1903
183.283
75.536
81.7234
77.5172
52.4441
133.428
43.0958
98.5743
49.1329
130.566
42.5377
47.362
45.3412
109.383
103.79
124.188
59.3533
60.675
22.3869
82.0424
63.2828
90.4438
90.4329
29.12
40.3195
95.5203
42.1183
92.3523
116.733
94.38
183.849
117.524
118.373
23.8959
206.213
76.6813
70.7134
67.9709
25.8284
18.0615
204.482
99.1061
61.7572
54.5013
112.626
180.493
125.772
116.28
25.8485
34.104
21.2846
80.7238
63.5147
94.9801
126.285
122.985
85.5923
45.0941
92.3957
62.8055
94.6816
27.6685
74.5669
81.3208
52.719
128.954
55.3517
44.0122
71.6513
88.1929
161.811
120.215
85.6985
109.142
57.9033
120.456
131.708
149.663
117.439
39.1125
100.366
88.0999
100.503
43.5666
56.5979
101.481
48.9718
18.6803
54.9675
27.8936
115.666
113.841
63.5737
28.1925
46.808
57.0725
80.5867
54.3435
21.8796
92.5992
73.4123
139.508
84.1103
26.4643
51.9329
68.6534
97.5254
55.0064
85.8277
115.569
133.462
32.5525
57.7878
81.1259
33.5012
341.635
75.8895
111.099
183.283
82.6107
96.3173
90.1623
147.189
104.833
12.1176
66.593
40.2735
76.1868
3.96425
112.338
48.7749
187.363
72.9895
49.8926
121.06
108.298
35.4269
119.372
96.4092
101.304
21.7139
64.0852
46.7044
60.5746
42.6111
50.3254
72.5574
21.562
22.948
85.5164
125.736
50.9683
42.0793
82.7313
70.2423
138.653
11.6864
115.485
69.5384
79.1502
34.0212
47.2813
87.5314
66.7423
93.7027
62.3151
69.3644
64.9769
113.56
47.6005
84.1305
63.1485
114.594
27.5163
91.4589
100.178
90.8493
70.6483
42.0378
66.1927
110.343
15.3461
52.478
164.286
75.5065
62.9545
71.6523
120.447
135.291
134.629
53.0643
40.4213
124.57
124.84
50.2628
88.6049
104.267
82.3786
40.8546
47.4447
23.4468
33.1514
166.042
10.5608
71.7233
47.6817
143.305
78.7313
68.2103
61.2876
85.839
82.6896
121.649
63.5481
158.231
110.74
68.2726
47.5549
113.332
56.4294
43.1628
116.729
34.0321
83.8213
23.9916
39.1617
113.331
65.4265
71.204
116.535
58.7452
43.8864
51.9608
24.3938
88.3523
20.9827
40.5805
44.2815
109.004
34.0145
25.7739
135.604
57.4821
78.3723
85.3115
124.326
18.6502
19.5478
82.4588
11.6402
164.435
126.187
22.7764
123.867
57.7027
117.577
46.5847
95.9765
199.488
71.0336
73.6702
13.4375
99.8613
68.835
27.8031
136.384
76.7868
88.3711
159.145
36.9478
104.076
98.5056
145.571
34.0527
106.31
60.8778
123.419
69.806
35.3872
53.0924
71.6311
37.9372
60.6699
98.6107
142.374
104.276
80.5103
62.6038
106.523
50.6443
133.372
122.887
52.5347
32.868
52.8909
77.7343
48.0583
142.618
112.606
69.9339
131.083
46.6121
154.812
72.3475
105.818
146.058
169.367
23.2892
38.7722
102.69
9.21469
105.098
41.4061
94.2589
27.2456
97.4988
113.626
48.649
46.1174
54.857
120.401
137.993
86.6414
93.1843
56.3142
169.94
77.4088
145.614
47.1279
28.2116
44.7877
131.977
220.246
29.5158
78.6617
71.1977
68.2113
197.685
45.0537
139.192
37.8333
117.711
46.0013
99.8579
45.8719
102.591
8.66063
103.487
114.28
102.686
126.218
12.4038
44.2263
125.689
122.247
198.951
38.4907
35.3938
98.9695
36.8865
100.611
106.742
40.4035
172.911
18.9923
161.251
60.5381
79.2353
104.645
40.4438
63.9342
155.956
25.0849
73.5544
46.7922
67.2768
166.428
128.464
25.507
146.533
67.3227
65.5488
107.377
76.4388
25.6295
156.119
80.5562
48.2349
89.1305
120.043
98.9069
50.7048
101.047
77.3968
117.548
50.4047
47.3863
88.3856
179.488
112.816
56.9784
54.4136
48.0206
85.742
16.6513
103.629
83.1645
61.5767
75.2231
56.3229
77.0512
157.053
126.103
27.48
85.3559
58.7449
38.5644
146.926
32.6414
70.6184
67.1033
16.1933
103.739
49.121
64.4199
183.391
80.0991
42.6063
22.372
93.7903
53.9957
132.917
118.813
172.228
152.192
16.958
90.9425
20.0258
77.8667
90.7689
84.9315
104.893
99.7582
59.4741
140.01
73.0079
80.5594
55.313
140.504
39.2132
115.206
13.1845
13.8766
91.1316
31.7974
48.0484
86.1293
88.0002
90.4762
128.734
50.8361
19.6713
60.3809
85.9503
117.067
80.4832
51.4177
85.6656
133.417
22.3147
49.2527
89.3243
71.8878
76.8014
155.047
215.671
88.3282
43.1576
82.7425
111.876
122.25
191.221
23.3211
31.1808
35.2198
34.9652
65.812
143.513
54.7384
76.618
46.7675
100.532
18.1251
22.8832
134.073
134.238
111.901
135.636
93.8143
59.5431
114.191
88.0401
72.5249
72.3357
11.8207
112.658
152.226
64.5776
100.891
112.947
86.5431
76.8215
34.891
66.9748
76.2777
49.96
48.3702
99.5207
31.8635
96.1671
81.0764
154.207
79.5786
52.4284
183.378
75.5235
104.23
113.349
52.9996
134.206
147.324
128.584
106.411
48.3715
86.7592
55.1495
165.865
13.0857
173.787
91.9403
86.3578
169.659
134.027
125.582
64.6802
77.5831
145.575
140.518
57.0057
76.5595
144.382
109.043
118.887
95.9401
72.5379
128.237
132.995
117.981
113.081
196.26
94.3642
58.435
41.3345
81.9437
81.1093
107.566
97.8435
52.4408
77.9045
7.45234
82.3879
65.7598
77.762
121.626
41.1153
148.666
73.2582
40.8903
30.3043
100.086
116.066
51.0241
25.442
78.9531
86.2452
191.197
74.3585
108.268
136.806
107.395
63.9537
98.9429
103.58
29.7918
46.9868
91.6756
69.9572
66.4814
28.8315
80.1304
100.781
76.4835
79.0146
49.8434
159.965
68.5631
98.6483
52.2402
68.0565
74.6723
120.457
172.721
91.3339
11.5514
37.0082
42.1007
78.8924
59.2382
175.362
97.9329
101.183
154.816
41.5175
120.859
142.564
49.6183
131.184
44.1406
130.311
68.0457
149.293
37.4786
128.091
71.4849
81.7722
60.9259
36.0841
99.6994
111.845
192.13
83.4019
81.0532
90.7968
93.5261
94.3916
44.8082
21.4747
87.3362
119.427
71.552
180.977
39.3055
28.6138
35.6987
33.7989
50.7686
100.628
99.2124
44.2934
126.721
38.0783
48.7744
107.673
40.3298
47.5789
22.8731
103.223
86.6253
57.1482
131.309
70.3458
40.2587
186.818
145.78
40.4944
96.9906
66.7057
100.226
117.477
143.158
51.2468
47.5872
134.316
82.9309
87.0377
158.381
61.1879
112.327
142.885
138.534
87.6218
115.498
43.8679
28.0549
98.1748
203.738
79.2844
125.202
63.6845
62.633
88.2968
81.0197
99.9806
46.7657
86.8848
37.3356
143.695
25.567
112.572
224.494
97.1255
44.7019
115.587
44.4663
118.337
137.498
63.2356
76.5619
20.5451
60.0973
92.9599
136.538
95.5027
178.245
259.011
83.4738
89.279
41.2155
59.3108
110.839
84.0356
72.6733
90.3117
97.3434
106.247
30.0863
179.263
75.0305
155.901
158.296
68.0442
44.3027
79.8577
83.4397
91.0527
196.801
140.744
70.5783
67.4567
103.406
28.6097
40.2346
115.282
86.6197
75.6274
61.1363
35.8068
71.8295
67.3755
119.396
66.8525
105.052
90.8562
93.6388
56.5353
143.098
67.3085
135.61
58.4293
87.5363
20.1925
62.9905
77.4477
86.9902
64.4803
93.9294
71.5105
69.3303
150.77
20.8678
102.989
48.8963
135.334
70.5279
53.7188
79.4354
41.4386
59.3922
21.4542
159.265
21.7348
69.7844
75.9106
18.8147
13.1428
10.3156
139.882
42.3209
60.6624
68.7734
92.6735
29.5379
68.6268
107.555
39.7088
106.073
54.1576
108.796
167.226
94.2727
109.197
80.4416
58.3599
40.5509
43.2947
77.0961
31.562
61.1261
14.693
45.1858
92.9097
47.7756
35.5038
79.3083
79.8521
110.024
180.842
72.3401
90.3512
25.8228
141.14
115.331
53.839
131.776
18.4307
187.34
71.2933
58.2701
103.953
104.481
70.217
60.5097
202.066
4.70412
165.004
150.522
59.5183
71.2356
26.7956
71.8575
64.8552
56.6452
55.4755
117.53
87.1129
97.1075
109.238
126.663
70.9365
28.9204
137.871
50.2784
118.234
80.7687
154.357
133.781
84.4736
83.685
193.74
22.3617
90.5702
41.9213
178.294
37.2505
119.718
113.25
62.8191
38.6944
69.7197
77.8369
62.0689
32.1751
68.7451
137.451
82.45
91.0355
117.259
118.463
168.809
21.8407
103.638
175.13
93.6085
66.5737
129.783
123.757
58.4427
201.621
80.2413
74.459
44.5301
71.9919
82.048
29.0487
149.588
63.5449
63.8348
48.3691
38.6019
162.887
103.453
150.313
154.332
139.337
50.2388
64.4288
116.951
64.5108
106.343
46.6045
107.58
76.5806
100.34
84.6735
55.5698
76.9443
121.331
112.308
19.1227
56.4485
63.6769
92.685
155.125
114.012
56.0945
191.04
43.1638
89.7103
72.4815
83.3906
111.46
68.0857
96.8048
166.189
131.219
114.174
65.2357
14.0817
121.847
118.353
95.5742
33.1843
63.4996
63.7024
26.4745
121.688
102.202
81.159
41.5234
62.1275
41.9416
94.5436
62.514
131.836
173.021
101.692
72.7557
151.423
97.6768
43.4723
100.568
60.2732
11.8579
128.342
156.341
99.8808
23.7326
72.2182
121.961
168.794
33.9768
7.16742
40.3678
74.0728
79.5395
52.6389
52.6524
27.6586
60.724
72.87
54.8037
45.4812
112.488
61.9543
80.1545
97.1415
72.88
102.337
84.0839
152.895
93.7139
70.9983
192.182
8.8114
85.4937
124.11
71.6995
51.2468
45.9819
43.2342
56.3725
90.9092
63.0369
34.2083
46.0997
68.4426
84.211
40.8798
108.482
91.0213
89.1366
112.405
32.4333
43.0166
102.598
41.9966
135.958
76.495
81.7508
17.7359
78.9454
27.1464
71.0593
135.56
77.1492
54.3975
123.343
48.7414
23.9822
110.919
23.4796
41.0726
38.514
151.529
28.5839
90.6713
119.948
120.639
30.1289
53.9672
53.0341
142.259
112.621
38.1012
86.5038
51.2084
115.106
105.675
103.138
202.343
40.9264
61.9391
55.3936
209.114
5.34322
43.6737
62.7956
63.7629
12.7641
153.451
105.975
120.651
118.612
58.8342
157.078
115.114
63.8889
40.6911
19.5779
134.739
43.3906
53.9137
136.639
75.7119
68.1366
42.0823
88.1211
42.5667
3.32318
84.2162
152.606
129.436
174.344
18.985
221.776
8.43869
82.7775
76.8736
61.8779
47.017
26.2573
141.034
64.2314
24.8543
119.961
42.7289
75.6935
14.6403
116.133
59.3
59.4354
97.3678
95.5909
54.8617
52.0974
62.5827
117.287
49.0153
131.556
125.226
109.75
119.053
63.5945
49.661
68.6456
15.7
102.057
15.8251
114.788
49.7466
85.7415
14.8821
53.7282
104.179
76.6168
179.615
69.2427
32.661
93.7605
129.052
107.279
100.22
37.3573
149.813
49.8201
11.7751
60.0548
155.796
41.6571
67.5981
19.9603
102.32
96.9091
52.2905
62.1587
66.4165
16.4144
120.906
75.2647
48.5184
81.3928
43.7684
95.5842
8.39747
74.4002
95.9667
75.4003
171.046
52.3897
50.3708
96.5915
35.6362
99.9156
22.1393
85.5175
95.523
99.3399
71.9244
129.915
69.6939
86.2507
107.691
57.2628
70.2955
130.534
71.9978
128.384
58.3972
155.69
56.3503
65.3925
80.563
58.6905
31.9157
75.1161
162.075
54.4904
177.153
54.872
54.0757
53.6328
97.0605
23.764
75.4925
34.9357
36.586
46.8217
28.1231
87.0555
47.6628
92.7769
120.73
119.12
32.2182
106.051
64.7928
121.8
119.021
112.369
119.782
36.5475
106.58
144.266
54.4182
60.9464
39.4692
89.1021
61.0737
88.1558
61.0678
95.4829
149.674
206.515
50.1261
86.9338
43.5537
111.126
65.578
80.4126
82.5803
68.2631
92.0162
85.7482
30.188
90.967
46.395
86.2052
135.187
60.951
63.2727
38.265
97.0228
117.406
59.115
57.6206
66.9815
44.0256
120.446
135.025
28.0853
81.6596
126.455
95.3846
184.452
63.0031
110.81
103.938
7.83272
58.635
51.4723
70.3726
104.529
98.0761
64.5486
105.799
87.051
59.0014
154.806
130.583
169.444
65.1442
131.797
88.8802
97.4265
9.38204
194.416
126.033
145.006
93.5219
49.4726
60.0459
66.9622
72.9529
116.523
125.961
60.8104
60.5717
185.105
71.2216
91.1031
83.3815
42.632
86.4762
15.273
111.253
50.2493
39.6982
84.7319
49.4807
88.9454
111.858
32.4331
106.214
50.9026
75.7452
105.464
101.908
86.8684
46.3506
70.9902
17.0295
104.736
37.2008
171.782
68.526
21.376
68.8517
164.806
81.7211
22.9199
102.188
118.527
32.381
121.864
51.0232
148.802
20.8235
97.0523
173.628
51.2059
9.54361
42.2949
55.4611
40.3756
26.2034
64.8441
114.777
164.927
71.7706
62.4123
149.882
52.3949
320.513
49.2517
52.6401
93.6768
72.3551
80.5097
94.0116
50.0012
42.7579
47.4847
172.807
26.9324
59.9898
17.6713
44.4687
60.2088
10.1948
147.044
101.56
43.731
47.3237
46.1274
40.8503
113.713
54.6875
125.723
61.5338
40.942
74.4565
105.64
169.68
34.093
92.6293
86.766
124.306
76.9369
72.4659
102.06
109.779
102.416
178.304
110.402
87.9484
121.004
46.4508
20.3408
83.6453
83.7659
78.2172
16.3217
69.9442
111.587
47.8765
81.2956
76.7452
48.6262
157.952
142.233
24.2776
15.2021
43.2104
202.245
58.0757
72.3427
113.468
156.567
57.1004
95.1731
93.8023
135.865
265.953
130.37
26.2291
87.4781
29.7931
77.4685
5.63164
101.512
110.075
100.918
92.5189
56.1689
56.2728
79.4125
55.0414
108.072
16.2121
42.0288
80.4443
58.672
60.6928
63.4849
93.4223
54.2264
133.189
88.6789
89.5081
43.5219
61.073
127.009
139.469
163.308
22.4045
46.5198
84.9141
82.6945
5.60262
62.119
32.0423
142.627
27.6915
17.4059
90.0154
52.6549
80.4187
36.483
62.4467
64.3079
40.8979
83.5396
49.4791
78.2647
31.1122
7.60437
116.029
15.3516
154.955
116.851
57.646
58.9894
61.5432
180.396
226.879
61.855
116.501
69.9587
93.5157
95.9846
96.8478
121.224
81.176
64.1009
69.6918
23.4474
88.0121
14.6666
173.318
102.647
119.129
55.5869
138.882
102.033
123.579
110.412
52.5567
58.9818
83.6155
80.2092
65.4986
96.2232
97.0285
114.866
24.9177
44.3247
118.703
40.5923
163.495
55.1376
43.2181
26.6002
87.3465
58.4558
168.848
151.506
49.3787
72.589
34.3207
31.6782
83.2636
144.187
141.661
28.0664
88.5075
104.751
84.3429
85.4724
22.339
70.9451
169.344
67.188
39.8978
58.456
147.445
19.4354
73.9689
59.1247
57.2382
163.505
20.7659
99.9007
218.456
18.5697
113.378
146.797
132.77
88.8761
43.3245
18.4541
174.157
49.5833
78.9885
148.642
81.2784
126.756
155.66
96.7007
59.9677
125.613
187.042
71.3219
90.3392
107.383
128.127
150.955
43.6786
148.492
184.772
126.538
143.733
135.343
118.528
52.9018
132.014
41.1355
102.936
55.1619
16.1827
186.77
116.498
133.787
103.613
4.59568
41.9033
31.5119
131.158
82.1801
119.418
155.659
156.935
41.6858
82.5463
43.8162
140.604
144.659
92.6952
196.051
29.8088
83.2132
30.7848
87.7494
72.0381
69.6646
108.196
65.2969
86.1621
107.47
47.3941
75.3628
23.0978
108.192
58.3793
98.1125
205.916
77.8435
37.8489
75.6457
75.0946
78.8691
58.7999
103.488
120.544
18.5405
35.5062
48.7218
71.6142
177.227
97.703
59.1893
164.086
106.353
145.999
66.182
68.4858
44.375
63.9411
77.328
71.6662
12.1545
112.809
15.1021
81.0708
102.147
57.611
119.185
11.8107
116.082
143.739
51.4513
147.257
52.143
23.9488
163.361
77.7223
71.2233
63.4004
109.587
105.177
85.2564
49.6348
64.978
108.607
82.6918
24.4931
74.9934
164.521
112.686
64.7273
86.0084
83.1288
34.8105
102.657
65.0198
73.4572
138.208
21.6752
154.38
73.0588
110.139
43.2743
103.279
39.2434
76.7039
122.939
144.27
89.9379
183.14
94.542
117.059
93.3555
89.4431
61.7452
68.9817
74.0669
28.0304
142.616
221.726
139.822
40.7452
100.785
130.889
117.482
162.952
97.8396
76.8872
119.936
109.764
9.88723
33.9958
98.2418
56.1984
95.7583
15.6523
39.9147
52.3201
93.6829
86.8279
113.066
10.3493
137.139
89.1385
33.7157
75.2026
135.015
147.389
41.6929
92.3261
74.3623
76.6429
32.5262
131.172
134.004
60.7101
86.0789
34.9521
9.2477
72.5787
76.8671
70.9877
142.601
116.117
71.1397
98.9128
79.5836
66.6229
76.1317
155.16
55.3742
21.1129
175.239
40.7893
71.9255
50.5462
63.7088
75.3078
42.4239
51.3316
106.676
93.7048
79.0032
130.103
87.9637
41.7129
95.0636
129.895
73.8154
102.056
38.2538
58.6286
43.7555
42.4987
75.1405
30.6882
73.231
37.7675
135.506
96.9246
29.8192
45.4684
84.0718
69.2593
34.263
100.179
68.6203
123.714
60.1453
143.902
83.5091
136.685
164.441
71.042
126.481
156.654
110.35
95.9101
93.6201
57.104
82.6301
130.017
70.7235
68.6446
99.9639
50.5063
60.9379
81.599
40.5614
238.999
147.705
77.9955
93.6961
15.4144
59.6004
35.9911
52.4337
98.9514
73.0907
126.834
45.9903
77.9828
40.241
124.441
68.8431
23.4709
33.511
38.0838
35.2907
22.8017
35.5329
55.2316
80.1521
148.457
137.374
165.285
71.7814
197.345
68.6602
41.1982
120.273
83.4981
27.1807
69.4945
20.5549
34.668
21.6786
104.906
119.688
84.4767
60.08
29.323
57.5537
43.8551
145.051
63.3106
162.807
121.15
157.481
30.146
57.6147
101.645
26.886
66.9281
131.297
132.439
39.3898
111.312
27.3555
186.014
104.914
74.4792
28.1059
92.7594
99.5808
168.797
47.7395
82.3331
63.5448
36.808
100.581
111.501
23.4605
69.8365
9.91118
101.912
48.4474
94.8417
23.8864
130.898
24.1624
80.5089
94.3062
146.933
129.702
129.405
161.861
111.358
106.404
147.792
75.4177
103.76
132.164
47.9955
43.1801
149.29
32.4998
49.1906
20.0259
128.775
111.53
44.2528
164.763
22.3287
97.0343
37.6395
69.286
62.4005
69.9097
27.6584
18.9199
74.9183
110.879
71.231
102.937
102.659
104.772
78.8225
131.987
75.0379
181.435
53.6716
78.532
40.7144
117.434
69.5833
120.897
21.6611
64.2564
35.3074
63.3638
25.9191
87.2146
71.8255
130.947
91.689
116.468
83.7915
96.9046
22.9419
255.279
107.454
32.955
94.9031
69.4189
93.4246
78.7294
111.08
58.4169
169.336
97.8855
59.5179
75.2873
64.6775
125.239
30.4784
96.3158
98.0128
70.012
4.47514
13.5965
93.8064
132.687
94.3075
43.7468
252.279
164.543
17.2807
78.8741
32.7313
24.1935
78.0176
64.9804
33.7462
73.3653
91.584
79.0003
68.9508
125.786
62.7005
78.2926
128.512
37.0473
79.7807
37.6901
189.532
92.2109
87.2392
126.534
32.941
71.4955
8.14738
30.2787
67.3306
155.112
80.1259
42.0707
73.6075
235.345
49.8078
60.0995
108.947
66.4762
105.125
35.0641
138.475
210.784
128.771
77.5324
120.595
71.2502
61.7911
107.612
109.43
57.3366
20.4229
133.662
130.227
68.7772
46.8523
66.7074
76.9398
43.6293
102.532
80.7127
141.601
71.6323
80.6329
23.7417
125.589
34.3741
100.122
54.4768
78.5633
76.6943
167.515
26.0152
43.8453
87.8507
109.613
40.0527
44.9097
23.1451
170.649
21.1071
91.8227
51.1884
62.9352
24.263
76.9502
64.3103
79.8074
70.9232
10.3033
67.88
204.867
109.884
73.0587
72.722
49.5679
40.7543
91.3235
41.9878
151.69
72.9996
126.301
14.9474
114.912
120.031
43.4693
32.8979
40.0283
134.633
30.2268
75.4126
75.2836
189.901
82.0653
125.974
79.8346
78.1959
32.711
81.6833
172.678
19.5484
98.3651
83.3413
123.187
61.6541
34.1504
134.631
69.0595
32.402
99.0928
81.5613
34.1916
92.1428
59.9274
88.911
78.2846
147.802
126.8
48.4034
48.7119
131.567
138.333
110.472
80.7135
4.48842
65.1874
112.486
34.4948
59.6843
164.648
79.1003
64.1216
121.832
25.7069
42.2055
43.9593
26.6666
112.715
111.977
147.066
28.4688
95.8204
78.9298
147.887
14.71
15.707
41.7059
85.2076
43.5663
31.8653
115.243
20.1416
108.336
100.21
45.4243
20.4282
71.4568
141.464
16.8344
49.9931
27.6741
18.0838
102.817
60.2415
32.827
136.313
43.2632
68.6677
105.305
88.7776
87.7691
72.5321
144.001
113.016
129.215
46.9693
71.6613
73.0758
92.4719
32.3733
135.816
63.7331
17.366
50.4819
77.0153
32.4932
36.5181
22.9316
148.327
66.5717
131.151
173.381
114.612
141.09
113.976
75.2366
43.3634
40.8604
43.073
85.8134
42.4305
131.629
38.739
81.2078
17.2714
108.939
119.888
49.0296
55.6069
56.1704
55.0996
74.0539
67.0118
93.6206
93.1218
136.351
66.0792
151.929
35.1559
151.875
30.5628
102.972
92.6855
115.782
64.27
56.3442
19.7042
174.28
139.808
37.9308
93.7734
37.9203
147.726
39.1298
111.851
80.6376
36.4025
24.4492
80.4507
58.1847
88.9256
62.2097
52.9558
152.111
159.33
186.388
125.977
78.8535
15.6987
105.714
63.5564
105.878
123.798
133.98
93.3378
173.165
142.638
40.9857
95.1407
75.923
18.4797
102.628
88.6527
92.0938
127.381
11.7581
106.951
33.1142
48.87
134.14
80.4529
136.378
104.096
14.1896
91.9535
61.6709
82.2161
56.7949
85.011
18.5137
112.996
51.5865
94.0297
29.6746
67.6768
63.419
42.0806
43.5203
91.7913
50.2364
8.03372
83.9158
7.72217
112.788
156.706
52.477
232.542
127.401
46.8253
67.6582
62.7817
61.4651
73.8375
87.2011
120.103
18.5301
10.1807
138.533
79.8564
36.3587
83.7363
56.2107
135.749
9.27038
42.1804
66.0502
57.4546
73.4333
120.305
138.055
46.7329
155.805
36.5
145.18
101.131
107.485
211.207
32.6331
116.963
91.9638
119.81
123.436
100.95
89.2295
123.738
65.2668
86.746
35.6056
55.2429
40.9574
109.191
134.992
72.9655
84.3497
37.25
72.6391
137
26.7008
94.6493
117.719
109.562
143.887
136.634
89.9661
42.2148
107.266
112.585
52.3222
48.4663
55.7615
101.667
152.505
53.3423
98.1495
84.9247
47.2252
103.448
175.105
23.5954
13.5049
92.6091
127.408
64.9049
147.359
21.3714
135.2
83.2273
134.419
84.8265
181.05
68.2651
165.3
37.4522
133.738
52.0267
108.98
59.3153
50.4902
133.095
47.6671
99.6206
55.5701
150.547
103.799
28.2137
17.9676
56.5155
50.6725
54.5886
62.2001
76.3977
9.88599
69.9301
56.7032
114.038
39.5003
35.009
115.785
100.206
58.6276
79.8338
98.6671
98.2165
89.6814
43.1334
79.5915
180.428
132.125
120.707
42.2157
102.063
60.8851
48.1375
30.6519
30.742
133.175
94.6749
30.5956
64.7895
26.59
105.111
76.9846
166.334
49.1401
53.2157
14.0746
35.5888
141.052
69.6009
105.285
171.689
24.3233
8.83965
94.4828
100.064
42.5793
136.083
145.347
62.2694
50.3627
10.9281
119.145
37.2393
145.476
41.9035
17.5586
150.764
130.429
15.9078
111.602
144.673
59.7886
75.6079
145.173
49.3043
40.5293
164.434
133.862
37.0529
38.0206
160.559
90.4168
13.1918
4.18369
95.0861
134.28
82.9217
58.1478
38.8824
57.0064
52.4304
69.467
34.1729
61.7454
84.7675
35.0169
179.949
16.0045
17.8504
30.4293
38.4221
200.449
127.41
148.455
58.1485
115.221
38.9891
77.3532
45.9618
148.002
56.9393
130.952
94.7024
47.4879
120.19
98.4778
125.754
31.1944
119.545
16.4315
103.78
116.26
8.89826
125.963
54.5698
214.256
42.38
34.9116
25.8992
119.438
53.1867
78.9099
45.6578
137.629
69.7517
31.4714
161.022
62.147
43.2785
43.0479
39.6774
28.1445
48.3078
145.544
36.8581
78.0367
71.1949
59.987
89.9256
85.2216
156.412
125.676
121.082
62.7997
81.9863
167.972
106.067
24.8187
49.0064
76.6938
57.0498
51.5866
68.5616
44.9695
24.096
99.4573
109.798
105.048
61.3397
100.202
87.0213
94.3244
92.5222
65.4338
68.8149
59.8656
53.2332
52.4719
106.821
58.6691
113.67
105.197
35.9054
103.737
211.381
70.5128
79.1222
95.9784
93.9408
126.407
182.044
77.2439
89.4731
99.7101
46.7181
120.408
101.209
69.0893
112.327
51.6686
102.399
71.055
176.828
10.7245
76.4454
103.389
35.821
143.244
109.474
67.0261
50.3909
131.817
78.5601
127.874
85.3157
83.846
69.4293
134.706
98.2051
136.634
150.546
155.611
104.444
98.2247
139.546
47.1831
69.8823
87.3857
51.061
61.6061
93.9181
16.6806
133.569
121.334
92.976
118.923
15.6291
94.6715
10.884
138.564
53.6651
67.2096
173.937
67.2482
62.502
162.726
37.3616
22.3443
98.1644
110.625
110.72
192.437
173.303
61.5322
27.5127
119.344
131.235
48.5081
140.345
58.3565
166.083
35.88
15.482
57.1565
104.272
107.512
124.22
88.3706
28.5868
33.3325
162.293
96.9847
108.388
72.7355
103.614
104.754
97.3769
168.448
20.4485
167.846
98.3463
115.335
78.6854
70.7533
116.209
4.45887
53.8423
84.9574
124.03
25.3077
106.081
121.702
129.756
109.456
99.3816
78.5789
101.86
87.3699
45.3807
57.2478
143.265
86.3248
65.596
73.4845
52.9956
131.229
97.5942
120.919
96.6329
14.8591
83.6236
84.9202
63.4885
142.498
84.26
67.2362
197.118
190.579
32.1207
64.4341
58.6291
120.801
89.2374
14.691
230.983
31.6777
144.807
109.3
111.08
33.8398
81.8219
18.8897
128.589
149.628
41.2352
109.985
143.925
79.1925
87.7982
106.693
93.4368
130.62
60.3664
75.2825
58.7907
74.5514
25.8235
83.2243
30.178
85.515
148.416
44.6007
80.8907
83.279
150.391
142.142
231.755
174.148
99.7795
144.007
135.924
93.4096
85.4377
119.191
122.229
76.6232
64.8688
58.5045
103.52
62.2229
16.8179
25.9515
27.2534
29.3503
52.554
227.936
69.0577
85.8532
106.377
69.3643
49.0335
60.0997
138.851
38.5794
89.5021
68.8907
27.8385
104.296
103.56
63.5748
42.2708
38.8044
73.0402
109.176
152.637
192.023
184.039
106.061
160.177
74.6179
41.3554
15.6113
209.115
67.8065
65.9253
56.2707
57.8724
98.6803
131.734
129.443
19.9159
164.016
22.3493
152.826
31.7398
91.1139
106.168
97.7196
148.796
168.123
74.6836
151.058
45.9257
65.3891
145.404
98.2017
116.418
100.795
177.635
118.414
80.7747
132.413
173.892
121.151
163.943
109.622
166.6
180.719
77.8708
136.454
111.958
11.0674
149.604
111.036
105.275
139.841
37.1657
86.7194
68.221
85.0796
124.089
63.3326
182.354
90.0934
101.339
176.55
102.361
152.271
74.5154
105.965
111.189
174.533
133.627
154.673
119.39
136.435
107.902
130.302
74.0667
101.737
158.151
118.159
130.148
97.0409
96.5754
113.633
162.325
49.5172
144.631
135.524
170.147
68.4658
65.4416
118.263
160.359
216.485
206.438
168.827
89.06
200.723
192.628
205.855
229.826
131.438
222.396
83.4922
172.722
106.566
136.351
172.721
241.974
250.491
152.294
95.5656
222.595
186.782
207.577
262.719
270.968
222.118
293.71
352.861
433.125
285.161
244.678
297.004
230.988
403.927
382.636
515.747
353.6
362.828
444.757
466.112
433.397
632.452
590.019
600.345
576.069
762.504
708.155
691.619
581.732
850.549
874.233
629.109
801.035
758.046
589.155
686.625
582.88
688.206
695.091
754.809
703.82
657.013
650.086
647.588
769.076
681.454
566.518
500.602
421.598
586.188
624.241
701.985
588.597
515.641
747.205
676.244
617.709
817.14
825.922
805.736
952.473
958.39
1201.91
1074.66
1109.2
1120.97
1195.46
1255.51
1200.55
1275.5
1234.55
1305.01
1402.53
1288.73
1239.25
1257.02
1098.01
1142.42
964.32
852.569
700.899
634.895
673.71
621.713
529.517
491.361
457.435
508.819
444.297
410.86
431.834
391.316
406.119
390.484
404.24
385.561
468.18
243.857
187.266
396.936
202.413
248.068
350.986
274.227
305.56
225.768
260.775
191.138
259.059
163.838
311.333
237.499
205.169
228.522
103.05
276.532
177.295
309.487
323.837
215.682
247.493
157.814
253.997
165.194
49.6412
235.701
161.667
247.237
184.794
239.465
269.2
150.619
218.01
277.122
316.576
146.59
173.777
180.176
133.695
291.511
125.323
254.766
296.267
405.316
314.131
519.205
424.201
624.504
702.063
626.943
599.883
758.197
609.989
456.196
276.62
301.682
164.753
87.4711
130.093
47.604
114.816
102.486
55.92
114.049
90.2805
47.4605
107.955
165.736
158.362
93.714
71.52
58.255
123.784
100.407
114.496
185.767
112.945
145.86
112.005
166.161
123.014
31.875
113.826
92.6065
51.482
142.673
117.922
85.4572
40.1265
64.5723
40.515
170.432
42.0192
134.947
53.8416
61.6673
34.9827
103.335
63.4689
57.7505
42.1601
162.757
172.94
31.6437
52.8682
218.557
16.1919
111.405
110.206
40.3707
128.861
55.0343
109.761
29.9478
144.289
92.9735
84.3654
52.173
22.6221
111.675
157.887
66.8669
17.3199
45.3468
66.3627
164.255
65.9596
51.9243
74.711
128.685
70.8538
135.205
15.4511
76.7886
157.867
132.126
20.0172
108.76
88.0558
171.68
57.5676
68.6015
160.797
126.893
150.819
81.2082
132.145
108.556
64.0561
126.332
105.502
58.4472
149.644
156.033
48.6951
124.178
79.9275
38.7243
131.062
98.4114
156.058
86.8187
151.528
124.916
95.6377
146.078
35.1678
97.7044
68.298
43.8444
56.6948
139.397
84.9918
117.602
12.6237
27.1855
67.7793
25.9622
112.222
83.5745
17.5675
57.2627
52.2056
149.018
42.8954
70.1177
68.6998
168.381
119.186
74.656
38.5081
57.4259
43.6254
95.9033
75.3737
214.979
111.788
113.139
128.001
81.4653
68.3833
71.4078
58.2553
193.077
142.757
107.528
100.26
105.8
127.58
169.758
104.557
12.8714
114.336
5.14517
125.184
82.8161
52.0283
96.7936
38.679
35.7754
48.9172
53.4002
92.9536
38.3146
135.568
22.6545
161.705
80.2492
138.382
13.9057
44.6951
79.2158
69.2663
72.2779
114.88
215.069
58.5854
52.8308
227.082
58.6941
60.3799
80.1976
46.1847
41.3124
104.614
153.698
135.845
187.941
161.324
171.357
114.647
34.5031
38.9963
21.1701
67.2815
127.525
64.2427
65.053
73.1593
103.449
13.7351
77.4135
147.905
15.907
160.492
64.5055
69.8905
165.266
52.5529
115.74
37.6885
58.7561
52.8166
116.16
177.765
142.34
100.49
62.8391
187.253
113.981
20.8031
111.464
121.808
220.868
70.3989
139.208
46.5344
136.033
73.9481
58.6344
119.855
118.366
84.3106
64.6794
69.9096
131.3
67.3672
64.6732
116.975
74.0041
110.82
157.632
105.424
63.3473
126.399
44.0275
58.2193
90.2725
32.2564
94.9853
64.1307
64.5379
108.947
92.8994
17.803
128.791
90.2113
32.9408
4.43463
155.466
64.956
143.693
232.582
38.0464
129.207
67.7232
20.7612
15.3235
74.1489
100.49
136.928
9.12011
41.4525
81.3134
83.7519
92.3188
67.2784
117.784
98.6238
75.0365
60.8527
158.812
2.93521
166.781
167.908
134.068
181.67
106.193
59.1093
83.8687
161.492
82.2894
47.4045
122.616
57.4043
99.7617
28.8032
169.34
43.3654
90.3696
79.0115
44.2582
68.1898
43.1789
112.631
92.7639
77.5978
61.3515
153.078
119.37
87.6274
112.527
92.427
68.1081
85.04
32.0719
24.3144
94.7464
171.492
57.6532
101.16
33.8612
56.6645
144.822
48.968
57.9368
88.3499
28.3697
37.674
53.9307
33.3168
119.32
74.4941
87.2906
69.1972
124.083
113.881
98.4181
63.8744
92.0056
121.498
82.6505
73.9404
139.257
36.633
72.7981
33.9815
23.9733
164.975
94.4888
109.228
130.641
53.3736
37.0484
141.104
92.6024
45.7318
129.945
69.838
65.937
55.8286
41.6805
57.9626
83.8214
124.426
88.6082
44.948
95.1405
84.1691
105.36
164.393
63.7799
63.5806
88.7127
71.9923
122.526
142.146
99.9774
53.5686
6.14599
143.642
133.693
195.953
38.4988
51.808
145.384
103.22
172.331
179.765
67.7886
100.826
66.3327
75.5633
58.4623
50.3265
82.4435
33.4007
79.9092
157.774
199.207
109.249
175.254
58.3043
106.587
56.0308
69.3757
109.103
139.712
79.4173
37.676
101.28
98.0729
53.7197
59.5274
71.5909
100.7
14.0927
123.595
124.467
80.4689
65.6798
158.17
102.816
110.782
83.0073
58.7807
114.904
49.0596
40.3263
33.455
192.351
77.2095
145.466
126.783
38.714
143.679
45.4014
122.59
85.8012
45.863
48.5744
103.414
66.064
11.3143
47.6342
66.3535
96.2549
62.6087
93.8122
137.428
59.366
66.3964
70.629
20.7041
150.483
11.1232
74.3423
55.7658
37.1765
54.6402
20.3486
37.1624
104.803
29.6665
64.1077
10.0446
74.1086
72.2197
108.194
51.5423
82.521
76.0973
83.6388
47.1472
12.8281
27.4402
107.45
100.285
108.728
127.752
51.975
71.3246
35.4898
4.78679
173.009
98.9763
104.352
29.6673
2.73399
101.96
94.5503
3.87079
56.4944
39.4683
27.5669
33.0227
13.2041
24.0781
95.4936
143.742
110.72
38.6544
79.1208
180.424
162.826
42.0157
74.213
106.508
35.9296
31.7638
92.4057
72.8254
28.0498
62.1898
25.6146
45.7485
133.588
140.707
81.6697
40.1154
90.4917
57.4728
65.1831
163.042
53.3727
98.5013
28.4097
111.751
65.9892
83.0245
85.6822
85.6348
49.8698
106.36
81.3854
112.061
29.6287
41.5472
112.691
74.8656
79.2115
75.7222
167.84
48.9701
147.624
132.49
66.3909
37.6976
94.4762
97.2016
90.479
125.308
102.632
71.0552
175.411
76.2859
8.8159
109.505
69.5688
63.8263
126.46
55.8437
4.24826
124.686
42.4993
187.812
51.9376
93.3341
74.1151
202.861
64.9378
90.9539
106.913
133.566
35.8947
74.4821
157.942
68.2078
139.158
51.2085
64.5293
5.70352
150.5
63.2956
122.347
149.795
59.3287
32.5658
81.526
86.1698
82.8191
95.694
89.4217
47.1456
181.167
46.7619
155.17
52.0297
38.7707
85.4793
89.237
128.493
10.6078
116.685
92.7743
38.3432
48.8274
80.3284
91.8963
40.87
46.5356
44.4999
11.7922
67.7838
109.643
124.792
80.611
44.338
96.7632
150.691
67.4692
65.6076
65.6012
178.713
30.1158
58.7908
78.4413
66.0258
130.63
79.1722
145.381
90.5257
158.287
45.8679
227.291
168.476
78.0976
90.0848
80.6132
174.16
128.788
85.3103
116.849
49.3197
91.3753
78.9763
90.2368
8.05938
180.876
53.9693
25.462
71.4159
90.7065
3.03204
95.0136
145.745
131.709
75.448
39.5509
75.2836
41.3499
135.424
47.6723
153.906
63.7825
26.0226
104.734
81.5108
93.028
125.78
71.143
108.518
111.123
34.9656
94.5298
64.6906
164.459
77.8079
122.375
142.793
68.4526
98.2477
58.4646
103.63
39.8756
115.728
14.5528
88.7497
129.105
42.3311
29.0442
70.4475
158.495
44.6181
41.559
40.9854
90.7646
87.2805
40.8176
39.0392
104.062
28.1648
61.3666
97.2589
81.2512
94.6575
16.2837
102.634
66.1177
68.2072
39.6977
75.606
58.7012
167.965
38.8603
93.6675
109.605
69.5024
99.201
156.438
148.089
56.0687
91.3592
166.827
78.5032
75.7534
120.229
67.2735
67.3391
85.9433
42.3283
33.3748
78.1513
120.184
76.9708
144.409
56.3314
104.478
91.7439
40.464
14.1594
22.4274
70.1067
100.21
49.9638
143.87
148.103
191.777
158.082
80.2676
119.761
106.463
166.595
103.355
36.1467
49.3112
90.3233
44.8832
92.0452
11.1969
127.08
27.8621
160.093
141.232
78.4076
48.0408
62.955
61.817
114.818
18.6203
82.9343
46.6741
109.655
31.3764
33.96
48.3167
14.2676
138.15
128.051
90.2353
39.3024
20.8437
68.7711
86.9341
126.199
91.1124
146.963
41.0281
93.1209
22.2596
48.9411
25.1641
60.0638
53.5166
127.013
55.169
141.357
11.1008
36.5084
76.8433
73.0203
13.3932
167.874
44.6352
52.9691
59.6066
43.0514
78.8088
128.68
54.8163
98.55
144.584
55.9528
79.951
37.5184
121.674
86.9263
81.1215
52.2553
48.4484
147.775
77.7006
93.3958
107.692
81.6976
7.51047
42.2381
77.9671
155.237
16.6326
21.5862
62.0037
128.345
140.391
62.7073
74.2159
57.9951
61.0448
98.7323
105.239
141.438
36.8259
11.1766
49.5179
13.6702
55.7209
97.3638
23.8646
27.6976
61.11
120.402
111.543
27.8619
66.8113
83.2914
44.0823
73.847
109.037
45.4285
57.8727
32.2313
47.9624
104.142
102.414
155.749
122.452
14.9541
71.6703
133.4
57.399
57.1947
163.448
76.2038
71.0663
68.9724
35.0107
70.4895
56.007
77.4321
70.8548
107.381
67.2442
20.061
160.511
38.9017
99.3271
92.2342
79.9963
78.1157
111.499
103.411
113.566
111.161
71.3381
112.341
58.7259
70.7424
74.7586
30.0856
40.4711
70.1597
98.4839
41.7825
56.0877
87.2836
110.494
48.6085
116.385
137.649
65.6879
70.4049
40.7717
158.941
78.2245
41.517
18.5545
146.241
38.2669
123.869
79.9065
55.6783
53.1489
94.8719
43.0796
56.6633
28.4753
138.208
24.415
56.2891
73.8394
160.45
88.3011
41.2805
75.4161
106.863
108.436
175.903
46.1459
43.9918
24.1748
44.8483
60.2698
37.4903
139.138
92.7079
78.6093
84.0925
187.484
91.0413
53.2746
89.097
47.594
184.813
48.4331
121.955
78.0139
87.1847
26.9846
41.1176
147.141
71.5789
68.8631
91.8011
65.2067
121.283
55.49
58.3298
77.2223
114.226
62.6306
92.8083
74.7132
75.105
30.2582
92.3198
208.597
81.0045
113.113
65.8868
96.5181
54.6927
139.5
97.6476
79.1391
133.268
118.631
82.8567
62.1942
38.6535
45.0173
94.038
79.7883
127.648
151.488
69.6417
91.1425
117.76
49.5113
31.4947
142.133
73.4251
31.0218
58.6504
77.7207
106.63
103.692
45.4605
30.7642
36.4945
117.915
74.9359
59.7568
74.7785
42.6114
12.1051
111.184
87.3261
29.2591
82.2807
51.1177
64.1055
139.602
57.1531
28.012
56.6257
11.6755
53.6269
44.5945
59.5507
186.915
198.445
136.158
57.8505
51.8918
25.6002
57.8374
39.7027
108.61
151.455
73.8556
101.035
24.7699
35.0473
122.067
154.815
28.7499
57.5206
54.1221
58.3261
135.954
45.3428
15.3147
55.2104
54.1747
93.4726
32.7926
66.757
53.8085
74.2184
67.7333
106.135
45.1803
115.545
94.3571
55.4492
142.562
41.5451
73.7121
60.9522
68.0766
98.9664
95.5442
66.0753
93.0851
121.09
62.4414
35.538
27.1438
41.6909
67.0894
61.5364
29.8616
61.3233
101.225
9.16574
69.9316
55.1765
88.9083
81.4782
51.825
71.8946
120.663
147.077
105.37
94.1152
70.7761
149.995
35.3541
69.8942
22.7435
55.8092
43.978
157.987
41.6491
103.919
20.5152
2.89152
132.447
84.4573
95.9161
165.806
35.5123
124.04
167.295
91.2268
133.141
128.997
37.3539
8.97865
180.667
71.9721
108.628
64.0778
127.039
37.6913
76.4919
23.3843
70.6308
94.2759
56.6012
60.1567
80.7906
49.0985
101.725
64.3924
16.1567
34.2341
64.7292
70.3469
114.113
68.1139
15.0996
25.8305
43.4547
67.5705
117.139
86.8268
91.2769
138.524
58.4013
63.0689
104.416
108.536
67.5465
20.3188
78.6552
67.7491
56.862
59.5576
57.1363
95.0011
55.0643
112.631
24.381
114.96
36.7678
67.4681
49.1164
56.702
71.0177
144.625
58.1619
158.805
69.3194
92.6891
83.6569
90.2227
60.0062
22.6147
32.6512
158.953
85.5692
116.519
49.6466
202.185
133.4
40.5505
103.757
88.8933
37.0429
67.9615
90.591
78.294
13.2005
48.5658
119.506
69.2152
27.0049
62.5978
85.9096
69.2431
52.71
76.5351
115.946
45.5701
25.3615
110.292
96.2204
73.7511
63.846
51.0284
61.0055
136.613
109.015
32.6983
150.665
95.2168
132.8
95.1078
43.8923
152.158
32.0548
47.4849
116.405
48.7322
139.503
48.9356
61.6682
136.074
101.684
17.1566
69.3609
91.0727
93.6889
143.222
44.2963
85.416
50.9264
15.0859
29.1874
130.911
61.5732
63.8194
76.2051
54.7979
107.008
67.5886
51.111
130.877
70.3686
80.1963
138.9
75.25
42.534
75.3754
61.9695
64.1639
121.176
25.2047
140.593
142.188
34.8967
57.3965
46.2138
85.8861
25.9344
127.06
96.99
109.489
111.976
110.915
61.8444
90.6125
121.651
122.249
124.347
151.919
180.251
85.4161
146.093
54.6314
98.4332
133.551
82.0891
58.3235
176.912
57.8363
58.4631
179.704
149.84
81.4429
109.374
140.369
15.9228
134.351
88.0936
151.581
146.576
222.343
68.3256
47.3891
119.497
60.1105
30.3566
105.163
61.7734
74.1503
59.4263
131.784
21.709
121.077
62.745
188.695
25.6549
118.071
116.866
92.937
25.1191
93.059
73.3325
108.754
91.2663
74.2589
84.2996
89.646
143.74
126.49
11.6953
68.1388
102.526
86.4509
40.1041
48.1784
124.516
7.35191
85.4898
21.6097
4.44114
49.3861
118.755
158.761
19.2562
60.3839
43.1422
112.76
30.2103
36.1106
72.2926
33.5101
146.589
175.963
65.7998
98.4151
150.304
33.6567
24.347
25.8552
83.2986
26.0103
54.3578
94.9458
184.05
102.585
97.4574
37.7757
107.948
101.803
11.5716
115.642
82.1258
94.6979
153.249
70.935
16.331
51.5558
109.92
109.491
119.478
74.6326
37.6057
28.4688
46.052
63.2804
114.345
103.128
60.0847
73.0966
62.6426
77.6701
56.4901
45.8117
52.4103
78.6448
62.9074
72.1692
68.4503
128.797
162.132
47.931
75.7305
85.1016
113.933
67.169
18.1589
64.4785
143.34
118.002
81.5668
97.0521
151.886
75.5906
107.343
52.8905
61.5628
108.802
65.4528
38.9991
87.7299
96.6708
56.4573
78.7224
224.757
89.6794
60.0387
107.385
127.982
56.6976
96.4144
15.5972
53.8529
104.619
118.16
178.923
110.478
122.249
47.3033
74.4231
42.2372
81.2824
111.847
70.238
120.908
109.472
46.7519
30.9784
88.8357
52.9923
60.5114
127.294
53.024
146.53
114.137
118.885
91.8256
39.0339
92.2315
87.4438
153.333
55.2287
71.3763
109.312
137.023
25.0243
36.0999
79.2639
49.9809
71.025
44.3901
81.6673
91.267
124.627
104.687
49.1362
187.107
138.342
43.2697
33.5215
42.8464
112.756
31.4344
72.9865
68.883
54.0974
127.002
62.2717
57.2364
54.8818
77.8425
142.176
95.4636
130.327
103.064
46.631
174.101
169.943
62.5253
178.095
69.3294
102.054
48.3716
17.5701
100.593
113.989
80.5072
16.4272
111.455
58.295
80.1513
63.9764
88.1389
84.3086
18.9258
108.098
49.0247
12.4934
71.7629
83.5767
151.11
28.5915
110.345
72.8323
94.8412
65.8032
150.813
67.4095
59.7086
151.378
111.812
64.3876
35.5162
72.7549
13.953
48.8451
58.445
164.362
58.7687
58.2292
185.872
42.119
48.7397
79.002
96.2522
62.5583
110.263
192.132
49.2349
75.0726
53.4933
67.9577
79.2282
67.2266
53.9079
80.505
154.798
157.667
117.577
175.858
56.1396
88.4733
34.5856
85.8938
105.945
76.2732
39.5986
161.985
123.305
51.1858
107.415
53.5716
70.8706
25.052
93.478
45.7283
135.187
76.2331
185.485
85.3236
43.0697
148.886
108.722
137.114
87.1356
106.386
103.297
66.6543
37.7842
137.69
120.123
88.9047
42.9941
28.6505
110.851
35.6675
82.8589
84.964
104.851
196.048
41.9731
45.6754
136.286
80.0404
114.513
47.9567
151.529
58.2247
59.8461
72.8877
67.3386
80.1362
37.1788
73.947
69.742
83.4316
90.4601
77.9951
70.4433
59.1678
162.139
116.394
47.6364
83.4154
142.904
48.4542
126.368
45.3848
104.926
81.389
30.9607
77.658
112.848
122.368
96.5204
53.7855
73.2614
102.052
120.969
15.2133
50.568
85.2532
88.3203
43.8665
94.1204
112.817
153.16
178.231
125.192
112.033
89.4348
91.8914
13.5199
93.5576
59.5159
1.56339
180.734
101.757
48.9316
28.6677
21.8061
49.2096
20.6514
83.0037
17.4119
55.2616
43.2104
111.142
80.2351
69.2512
127.25
65.2885
2.24728
42.9344
97.1547
96.5569
68.2462
106.895
37.4422
127.109
16.0713
99.2324
42.2213
105.244
110.949
110.365
32.0917
60.4611
75.4621
44.116
109.451
44.9651
57.1906
117.513
65.7849
105.155
74.8486
113.203
105.359
59.9952
114.31
78.1292
46.1446
56.9785
99.2699
17.3538
150.703
65.3029
81.5865
97.7891
96.2408
48.5911
94.6111
113.293
30.3489
51.3963
38.3941
43.5948
40.3862
47.5613
23.2914
135.975
82.3889
121.738
65.35
44.5566
113.422
102.481
121.948
58.9835
79.1345
69.2828
18.4628
156.74
16.7996
73.9148
120.897
65.8838
22.8025
144.788
38.2645
69.4888
58.4017
7.69631
151.162
150.339
30.7181
120.738
120.332
46.9681
100.374
165.541
132.876
140.458
62.7971
189.036
125.529
99.2404
51.0247
56.4677
76.8122
63.9387
202.81
70.3209
53.3198
81.3517
72.1453
182.857
158.185
70.6233
153.614
172.843
80.8234
95.2055
132.987
143.853
36.8479
81.1154
74.7618
67.4401
19.7721
95.605
139.395
98.3413
74.6974
56.2441
122.252
110.751
32.7363
91.5782
39.5649
91.1472
13.3463
98.986
79.8503
119.047
114.85
40.2136
58.6533
92.8674
45.5861
50.1541
75.2672
99.7
66.0866
65.6958
136.196
36.4361
33.4741
104.746
43.8738
102.246
146.925
104.428
183.677
105.394
67.3052
72.6374
154.278
93.0627
9.77747
131.39
128.485
33.8787
104.898
68.0388
81.0031
86.502
104.59
119.186
104.491
16.0065
150.393
70.3707
106.446
137.388
87.9936
77.9801
135.737
36.3874
101.88
99.8493
62.0264
50.5869
101.075
128.988
44.4967
114.062
97.382
109.336
174.315
111.231
139.6
112.526
82.8577
119.221
27.3458
156.371
111.121
161.494
107.818
66.7437
87.6612
65.9411
49.7681
58.7063
32.2034
28.9878
120.367
69.2638
70.001
110.408
95.4356
39.8133
38.8673
49.3972
45.9395
135.142
67.6684
109.263
150.457
128.176
96.4948
104.805
46.9629
186.422
66.0694
90.1756
132.717
69.7694
119.461
11.1595
84.1069
116.932
19.7713
97.9139
33.9343
71.8989
62.94
72.232
30.3132
167.319
57.9669
135.155
60.9832
158.186
121.942
44.7915
29.431
78.7573
64.0715
94.1952
54.8916
49.7352
49.4455
65.3296
138.852
205.776
63.8325
40.3105
30.6535
142.644
76.1904
71.689
143.371
77.3995
77.5577
115.517
172.353
60.6739
84.9147
134.764
170.175
87.1532
95.4393
62.2012
7.34581
136.972
67.8857
88.3167
67.0485
62.3403
124.62
73.6809
152.905
180.976
137.657
79.5312
75.0582
75.8991
49.0862
18.806
74.8932
110.786
59.7029
87.8363
145.965
43.7418
48.2536
44.925
123.165
75.9514
97.1557
11.0172
66.8946
46.8976
57.4089
52.6544
20.3328
107.354
48.1759
56.5685
92.3263
90.835
7.22582
56.15
114.526
46.7129
32.5949
77.3079
46.8495
200.411
115.357
72.0771
29.5588
17.94
29.4223
37.3087
54.0812
86.9455
103.349
112.202
76.2737
35.5513
162.842
42.5282
13.7932
57.8118
110.699
46.0983
34.5833
71.3404
52.555
36.9994
46.5346
85.1905
75.9699
68.2031
110.395
74.8634
133.333
70.7181
101.524
64.2267
56.4419
105.661
103.471
70.3778
63.8633
99.631
90.8029
6.93928
150.193
101.157
80.9716
88.7785
113.743
116.5
78.861
89.782
101.45
21.2375
90.2893
130.266
50.0661
32.9729
45.1716
88.3069
66.2143
155.983
10.2143
47.594
282.178
64.3526
207.273
150.459
83.4397
132.997
112.795
94.1875
28.3484
113.326
53.0339
83.2205
24.2734
57.066
92.2725
71.1358
95.8636
157.513
99.8534
68.3916
84.8832
32.4428
86.3615
119.64
40.33
59.5671
71.3162
197.988
125.508
39.547
17.182
62.4926
67.1527
81.7121
108.047
34.3875
103.759
64.4455
81.0559
173.875
107.949
78.5477
89.9221
34.1056
107.694
100.683
12.8894
116.687
50.0583
170.78
11.1891
90.8579
161.309
96.8799
91.0038
78.7061
117.051
94.3075
43.2643
75.8609
126.21
78.7544
117.177
51.1188
121.029
91.2503
100.927
21.3717
117.743
131.681
133.317
48.2756
178.279
52.9755
138.579
26.207
69.5358
132.162
130.6
136.088
63.6914
86.9371
15.0666
65.0482
28.44
56.1761
84.9723
149.833
28.4535
65.3445
34.6818
81.5579
49.3321
86.4854
62.1518
43.6956
58.7175
68.5255
52.3247
73.8652
160.017
188.206
53.9911
77.0861
122.527
52.3002
84.3354
21.0218
91.4413
34.5755
59.3275
49.9165
114.298
52.4845
49.2817
71.4009
51.539
148.579
115.231
79.2764
138.365
112.474
79.4345
97.1168
60.4206
46.8942
18.0178
44.0464
75.4006
94.5333
145.341
138.611
15.2597
36.2062
83.0838
42.1341
27.639
63.4319
35.6851
44.7821
168.494
85.8614
48.7938
44.4007
125.368
124.105
108.062
55.8818
40.4725
59.9717
134.137
119.917
64.9781
13.1043
40.9496
33.3907
123.151
13.5421
131.184
45.0255
51.5378
59.4661
56.6421
70.4946
30.8843
97.3007
122.809
49.7914
55.5372
82.1761
34.3921
82.4985
52.2969
91.2872
51.802
98.7176
36.9013
39.6172
40.7376
98.4084
30.1791
48.6983
122.061
98.4546
194.452
91.1989
151.376
58.9636
74.5469
203.908
131.164
93.65
64.989
129.741
65.9488
103.685
69.3431
92.6496
68.1462
22.47
86.3077
128.222
142.377
51.1471
97.15
20.0818
6.46587
122.584
38.2816
87.0511
166.502
62.6479
131.59
22.6799
69.4154
30.755
59.3334
83.3184
55.5032
73.8644
57.439
31.7681
143.806
45.2408
68.857
62.751
98.5321
42.1736
214.259
61.4775
46.6624
54.272
34.7701
32.9182
67.2363
54.2075
65.0334
100.462
103.907
65.686
184.32
116.743
163.719
102.513
121.372
62.8406
13.8629
150.045
92.4806
69.1916
170.827
67.9728
77.8146
85.4398
115.352
84.2587
96.7358
66.4589
218.432
164.522
49.0881
105.202
102.066
42.8287
139.378
158.412
46.8421
63.5084
28.7676
105.82
80.3538
67.4261
136.747
101.632
215.855
73.1264
25.7482
56.6501
81.1805
25.3809
102.759
27.5918
72.6177
93.7267
107.54
163.307
47.5655
130.702
156.022
129.531
67.3385
26.5442
67.812
169.126
59.1273
172.389
85.7804
46.1876
112.173
165.46
86.5517
103.743
66.2364
76.6664
39.3642
21.1385
123.675
109.615
42.6442
73.9918
48.0061
68.1347
129.196
103.03
26.0692
156.576
77.0009
19.8719
45.8634
121.672
96.1261
41.2145
102.522
87.0825
130.248
166.256
147.052
35.1143
131.651
99.8014
29.8311
83.9417
47.741
25.5438
133.706
22.0791
116.395
206.675
52.3635
9.98922
87.0956
68.8326
69.9262
158.948
154.635
81.0663
137.772
59.7703
75.1675
137.823
124.193
80.0157
47.6154
101.538
87.1627
119.753
99.6078
116.95
116.685
127.887
132.625
86.7755
44.9883
168.461
100.58
65.0288
104.483
71.8665
45.873
76.349
51.8077
31.6106
61.7313
83.9384
131.078
20.1352
46.2201
102.572
125.754
105.427
103.684
41.1687
173.317
149.073
52.0782
157.137
42.6023
61.7709
108.395
70.4178
184.373
54.8892
136.671
46.6197
126.948
78.8692
85.6847
58.3404
55.6424
40.1557
58.474
34.9028
20.743
125.246
23.0979
22.7555
115.149
77.9792
83.2086
82.3347
44.7764
141.882
142.779
55.3913
145.556
56.7015
134.47
142.298
84.9938
121.44
104.168
13.619
138.2
49.3575
123.213
138.551
93.8318
222.785
72.8506
150.464
75.7648
52.9002
130.306
83.9857
87.1478
164.937
98.4485
38.8456
47.6998
57.7224
65.5107
94.8069
100.112
29.2157
84.5164
91.3352
89.7705
24.9731
49.7276
119.689
182.55
40.9763
147.941
112.89
120.934
73.2317
78.6184
87.8006
148.789
114.311
80.5704
52.4132
103.553
98.0501
41.532
138.459
45.4432
170.69
92.1858
68.499
130.622
118.785
116.373
65.519
92.8197
115.369
129.455
29.6016
69.6395
86.9019
101.78
11.5245
49.1107
67.4851
42.87
40.89
91.5735
53.1344
53.3305
99.1952
153.598
54.7925
4.90099
107.404
37.7821
116.023
31.2971
60.5313
50.9144
142.249
33.3767
95.3531
39.9474
104.151
138.105
72.619
25.0773
18.3968
32.6408
40.5214
83.9431
172.328
158.74
233.481
93.5366
121.843
110.248
44.8157
75.2
27.9134
131.686
86.8597
105.959
113.404
42.6566
118.916
78.512
122.622
53.1355
124.117
46.9698
101.501
19.1367
52.99
88.4698
27.9063
142.318
39.9727
102.8
110.684
201.612
132.283
24.8218
128.507
123.984
104.399
33.6832
26.9623
152.181
89.9705
33.2035
129.199
32.5523
34.3825
19.4918
55.3007
63.2624
39.0021
95.4346
67.7071
34.7345
140.352
54.4019
29.282
97.2368
53.4591
57.7844
63.9139
105.23
123.258
163.454
116.77
69.8684
114.703
105.758
131.494
142.112
94.0297
130.908
53.3188
133.722
80.9612
116.714
118.653
93.3845
149.565
143.555
146.683
47.525
23.1343
104.757
57.5135
78.0801
90.7503
76.2553
78.9659
159.213
83.0689
120.431
51.0845
163.626
198.997
72.4908
28.9516
27.3035
115.193
89.9446
64.9895
65.7624
31.2714
51.6909
71.0293
111.509
118.061
181.646
31.3145
73.8484
77.0849
77.387
82.9503
112.034
93.4922
204.165
45.5897
111.771
24.684
83.7824
136.998
129.21
45.0786
133.112
137.171
160.126
30.2858
13.6265
170.603
84.872
79.1526
120.322
30.732
77.9834
31.2919
23.0861
20.7456
120.964
29.5758
101.582
72.5028
42.9902
26.2543
74.8271
56.4743
80.5072
46.2337
71.1183
138.606
8.59873
96.296
48.6529
14.1865
54.2061
38.8267
67.3395
171.118
111.73
134.669
82.138
61.957
85.3789
91.7151
86.7267
77.7672
36.5843
51.2897
150.802
72.2209
57.3937
158.366
140.338
51.4485
64.1328
72.5224
95.4936
179.292
53.2247
29.8132
66.3017
104.946
42.4861
60.9756
145.785
113.406
54.8042
104.952
61.1748
77.7603
195.536
76.1566
131.797
95.1923
108.783
105.206
74.0408
96.7999
110.885
140.027
88.2643
133.444
8.41449
89.3642
76.8523
68.0981
53.4873
31.6456
68.5991
169.528
50.5486
79.1821
49.5274
22.0472
56.7291
15.4908
73.9167
19.3084
99.9269
142.256
231.567
132.969
58.0568
39.0246
78.5867
131.929
53.6781
73.4651
124.745
113.98
11.1419
78.5783
102.167
98.5748
91.7217
83.2223
114.655
45.4076
56.4507
175.999
140.96
131.507
51.2047
44.6574
147.566
66.0576
55.3817
100.086
45.4404
105.237
26.6926
105.939
11.2408
60.8196
52.5335
96.8294
115.616
54.2571
97.5297
88.1007
31.42
25.3726
60.4406
103.836
154.256
36.5159
55.1082
97.7754
46.9044
79.9994
63.5309
113.55
59.4128
115.948
85.4445
145.793
53.1144
102.839
67.7618
152.853
195.548
76.5955
22.8071
142.212
70.5145
53.7359
80.7732
131.289
88.74
66.1445
95.912
134.234
88.3942
79.3742
61.2334
83.1881
150.522
17.2131
133.664
71.9419
85.0803
47.5287
74.0858
68.0911
108.69
39.8706
83.3174
45.3135
98.7171
90.4768
63.7258
110.817
82.6192
68.4277
85.5303
55.8454
69.4531
53.8903
55.6319
118.942
126.161
76.2427
132.149
76.2646
34.0288
12.3594
32.2161
81.7822
82.718
112.316
98.3208
22.1459
67.4874
81.9548
133.594
102.18
55.4917
103.335
53.522
54.6089
59.0592
133.053
56.1277
97.9325
24.3777
81.9188
54.8636
109.148
44.6635
87.8574
112.424
82.7904
91.1674
128.916
30.435
68.2497
54.1979
93.5062
188.235
23.5963
80.1351
118.282
98.4435
90.5332
56.372
78.8134
56.3006
68.0998
75.044
88.8114
36.9796
34.9983
136.005
87.1064
69.5133
93.7627
17.1728
73.0112
76.2818
105.988
134.891
79.0532
58.8158
181.533
54.1091
114.586
127.215
72.9932
64.9306
157.803
108.801
120.062
54.3915
47.9591
34.3722
27.1323
49.6987
67.0346
83.4592
38.0066
22.3943
71.0915
16.794
47.7217
110.033
23.5554
48.9909
61.7101
161.814
111.013
79.0874
89.5878
135.235
138.421
23.1781
92.9529
115.152
86.0903
59.6921
99.9749
63.1572
114.2
68.6838
91.2922
59.9367
3.91003
85.0185
47.1292
128.745
133.945
123.095
19.7374
28.7301
103.294
112.802
50.222
111.731
70.0442
121.265
52.9733
135.264
80.0054
48.1373
59.8682
12.4096
110.678
83.7717
30.1081
73.5154
152.821
25.9914
62.015
24.5504
75.9973
90.3754
48.1264
68.297
126.872
30.8487
98.0644
89.0758
75.9408
54.0312
109.57
92.0462
10.2102
193.637
43.1862
116.218
15.1052
26.5359
109.737
115.646
79.7271
119.252
79.764
98.0405
52.3829
26.3189
90.2072
108.43
54.2554
169.99
61.902
57.649
70.7569
114.647
45.5217
136.419
150.886
86.9904
62.0386
73.9647
67.4312
86.799
95.1195
61.5302
103.08
57.7591
77.6319
77.6778
42.4278
113.251
63.2785
148.935
141.939
19.8679
85.3554
59.893
102.088
51.297
15.4654
58.7389
111.093
60.4483
50.558
35.2251
70.4761
123.049
104.749
64.167
106.771
89.1437
67.7928
94.5209
66.9848
147.879
98.6525
53.0304
42.57
47.6477
56.6237
117.878
98.1422
122.43
127.441
27.0224
57.45
106.508
23.6356
44.2074
36.0366
150.853
77.2919
63.047
78.709
115.741
114.885
29.0502
143.533
72.6041
105.869
89.1157
112.6
52.9367
17.4874
70.8629
78.4041
36.3793
123.503
22.115
24.2923
95.7332
32.8943
15.276
126.036
60.3707
60.4285
114.781
113.961
166.014
107.564
68.3774
93.7346
121.628
70.6618
84.3175
105.339
39.5007
32.2604
154.624
140.177
86.6183
119.668
135.937
76.7742
52.4736
26.9394
126.285
192.397
153.601
70.9481
58.2167
120.222
134.686
66.9907
45.7546
86.5316
119.563
75.7811
72.2895
222.561
146.541
160.245
48.5197
59.7736
118.978
207.258
42.6593
150.724
45.6865
89.043
86.3777
56.3212
68.0436
66.9593
49.1933
102.067
113.18
186.871
143.042
90.4078
39.6822
58.8518
90.5874
112.114
46.294
150.257
172.462
103.516
78.9083
31.6313
110.303
71.9086
39.2193
135.301
41.3499
2.75984
32.9899
29.1644
222.967
18.332
124.608
45.92
109.291
13.0299
161.514
64.9145
114.894
114.559
55.1413
37.4279
102.075
113.142
101.216
73.8667
129.659
24.377
74.5409
133.746
29.8818
78.4502
6.52321
126.314
14.5689
37.2628
83.3783
40.8462
143.023
21.3559
64.1666
30.4032
57.2743
106.861
43.0343
31.9606
63.0397
60.9094
100.575
72.9801
8.91965
48.7428
181.681
106.589
63.422
29.403
24.3347
122.546
126.584
83.4548
36.581
193.179
101.307
34.7356
106.551
143.675
106.062
46.3225
29.0798
158.248
108.75
40.4109
51.8945
107.192
131.018
162.703
34.9295
66.7523
76.0577
40.2246
47.001
46.0576
52.4368
16.9067
22.8143
94.6592
66.6584
59.3907
39.5084
10.5332
74.1149
114.788
97.956
66.4134
61.6504
246.705
53.6592
32.9428
184.419
98.8377
82.64
70.2621
136.732
133.338
74.2202
91.4713
157.322
92.7679
50.8199
40.8311
86.1123
46.4565
192.246
74.2964
71.658
29.4418
64.1036
104.544
138.448
143.75
77.5769
53.9307
81.5484
59.7051
150.647
125.98
87.442
122.976
160.82
140.934
66.6668
79.6334
112.364
61.3224
173.667
31.2106
60.0604
100.208
38.4465
36.9668
40.8313
101.521
114.478
44.9049
145.396
104.999
116.96
141.775
76.352
84.6941
97.7764
18.1479
86.3782
26.1445
115.223
43.2476
43.7532
61.7144
57.592
163.286
122.467
131.772
31.5783
95.66
154.101
41.9492
34.8292
69.385
33.0493
112.572
94.9291
0.513474
11.1774
87.1173
28.4265
117.089
27.0239
71.4067
129.902
84.805
70.8931
42.063
73.9253
133.357
78.3737
54.7375
79.9917
61.6215
77.8961
60.7431
32.9549
68.7958
176.064
50.1435
80.8894
67.598
66.1851
99.1072
200.668
79.0591
49.186
92.9021
109.553
107.143
62.1332
19.4991
49.487
199.66
106.068
53.8004
24.262
114.793
57.7553
144.138
134.409
31.1839
48.3317
73.0647
118.215
80.8638
70.1136
63.7703
38.4875
87.6538
70.4163
89.9234
87.8618
60.8056
83.1123
93.6896
87.9431
24.8705
48.1525
8.93872
136.361
69.5247
132.547
50.7739
116.988
83.4491
45.0272
33.1422
72.18
42.8834
100.777
104.414
32.3672
68.9523
62.7966
56.268
123
39.4017
125.696
88.678
77.6109
86.4926
44.7226
67.5099
168.75
41.0003
166.961
15.0255
98.1496
66.5711
70.9049
44.1482
92.9804
47.7032
89.1977
91.1293
95.2708
22.4733
61.6628
90.7973
24.6769
48.3514
69.3099
68.9955
140.502
97.0733
112.687
16.2164
127.829
56.639
90.3111
114.66
116.127
104.804
116.809
83.679
49.3006
132.413
16.5087
208.726
130.858
64.8258
53.2168
16.7135
47.786
56.2906
107.95
111.1
89.2314
98.3422
154.047
101.368
87.5884
239.612
56.0091
53.7166
84.3646
154.517
58.5908
9.41533
81.1388
69.1126
29.4979
79.8115
28.1072
185.287
234.825
112.697
92.3191
50.0419
58.1302
110.577
75.3065
112.778
79.9888
36.7718
97.0245
103.213
178.473
51.9631
79.5898
30.2293
200.049
75.831
64.7256
57.9536
86.9146
48.5356
68.5961
67.7175
79.3442
71.9118
65.623
106.3
85.4027
89.6153
56.2692
151.046
172.001
47.6846
117.304
142.51
121.194
75.1779
115.419
126.259
134.311
114.008
88.4792
62.3655
144.132
63.5144
173.375
23.518
158.833
198.323
118.776
81.6048
169.444
127.126
105.664
64.554
69.136
92.2762
34.012
81.7382
61.3354
155.233
126.399
94.4022
158.229
56.4414
55.2284
33.2987
50.8059
59.2047
72.8498
127.11
133.588
136.311
18.9488
62.6847
77.8736
24.3117
191.308
57.4339
22.9672
137.691
6.51926
127.491
66.8485
133.064
57.2641
93.7283
67.2161
153.121
38.2511
56.0677
35.7933
73.9863
130.079
147.017
81.3618
69.854
132.288
98.8365
176.522
27.0691
82.044
96.0245
50.3272
36.7396
177.064
27.9577
50.7246
111.034
96.4326
5.05638
81.2708
149.883
93.5486
55.6119
94.215
54.054
22.7289
56.9357
150.388
26.5189
120.997
70.2453
150.871
66.4712
79.6247
106.427
55.7935
127.11
23.1208
104.436
113.875
77.0649
67.7833
33.7437
83.1727
77.3853
53.1399
57.5507
178.293
143.662
79.5429
192.912
47.1599
201.621
48.2139
132.744
63.1275
54.1693
191.332
56.3865
157.627
112.915
121.223
76.3757
109.253
111.043
26.6708
69.0579
62.8132
52.9927
22.2446
46.3528
11.7986
152.564
23.6679
50.0019
173.022
60.1262
42.4543
74.5677
38.4988
71.2042
135.875
92.829
145.484
42.8221
22.3536
201.453
98.7578
152.855
119.01
75.1619
86.3862
38.5643
110.532
60.3883
142.481
139.306
35.2197
8.1399
111.192
38.3844
89.7595
54.899
68.617
58.4518
48.1165
77.9338
48.4308
102.563
43.398
173.343
87.4685
73.8268
127.629
26.4766
126.507
54.2149
7.64253
102.077
36.2895
47.5289
79.4803
135.379
84.8552
99.2182
83.9736
64.7546
98.103
105.867
21.9203
74.9703
109.574
57.3821
125.537
51.024
70.407
86.5361
79.5252
123.298
122.395
63.7307
58.9777
52.949
64.9132
155.621
163.564
44.0977
75.1759
104.559
46.1531
34.5132
45.0201
86.2105
37.0396
112.263
138.252
83.2312
53.2332
27.5864
118.582
17.7734
57.5894
108.747
45.0707
55.4482
53.8343
112.855
173.656
89.654
51.0903
76.0356
62.1204
84.3805
124.638
69.0195
144.342
94.1497
42.5902
12.4148
99.2456
27.5956
133.191
41.1435
10.7379
45.6802
74.9377
60.0383
30.9166
42.1955
46.7143
73.7118
33.4194
176.019
122.88
111.87
79.8187
101.721
53.7511
24.0846
122.338
91.3138
110.802
114.761
47.5582
144.745
109.348
82.4862
90.9615
60.2536
170.554
50.0436
41.7499
99.1878
47.7624
15.1094
69.1162
56.4184
66.7135
37.5166
62.5927
136.328
131.708
98.4035
21.2042
115.262
109.568
67.8613
71.8302
56.6681
74.0786
84.7155
90.0559
87.2329
79.5497
27.8934
108.666
68.698
102.066
193.545
147.407
237.028
62.5917
13.255
79.3408
190.495
100.237
188.46
40.6047
126.394
98.5908
120.968
167.681
108.514
24.9589
60.5507
86.3278
66.0689
90.2859
88.4041
60.5618
46.637
126.28
49.0844
144.784
54.933
100.563
138.462
74.9963
83.0473
48.2301
102.791
88.8997
17.6984
31.8173
51.7871
120.728
86.0508
72.314
77.0347
89.3716
77.7505
78.4732
47.7311
130.751
156.069
51.5031
53.1562
78.2347
11.261
47.0204
134.274
26.3498
113.541
30.4558
88.4813
59.766
109.901
91.525
63.4226
48.4333
59.8787
76.1447
69.4292
130.155
81.4094
100.466
104.194
26.7504
20.0377
99.909
118.394
13.0009
77.252
133.735
16.3237
63.7209
68.8488
58.3299
134.889
166.797
165.589
176.21
93.002
21.8992
99.0852
46.2903
122.092
108.565
65.573
82.5705
131.59
36.0813
58.1594
21.1092
136.506
51.8933
166.913
42.8795
39.3767
89.3264
134.757
86.0477
86.1089
90.9434
76.5077
61.3584
36.7575
21.1158
58.4612
132.107
125.192
68.0901
120.993
39.2729
134.015
108.068
100.42
17.5835
90.91
58.9176
109.388
126.776
137.588
76.2718
104.407
8.82607
48.4
131.459
56.4958
34.9773
63.687
41.2878
78.4901
109.827
62.7353
66.8336
64.9623
128.809
75.7764
139.276
88.2212
68.7753
118.283
17.75
174.797
32.3217
8.99023
133.781
36.501
77.3385
141.245
51.9066
134.006
108.237
115.56
116.89
34.5824
106.178
44.94
96.9846
109.025
64.8368
110.739
114.035
56.8393
116.017
48.2015
63.4933
129.631
51.994
71.5858
104.89
26.1821
35.9555
77.3526
48.7561
162.559
83.9419
62.7424
77.9611
62.8585
62.3085
92.4629
120.262
69.7268
165.952
137.386
87.7776
51.9977
120.93
68.739
