ENLIGHTEN Version,3.2.36
Measurement ID,20260121-152926-257183-WP-01416
Serial Number,WP-01416
Model,WPX-532-R4-EXR-IC
Detector,S11850-1106
Label,CHCl3
Declared Match,
Declared Score,0
Scan Averaging,1
Boxcar,1
Technique,
Baseline Correction Algo,
ROI Pixel Start,80
ROI Pixel End,2046
CCD C4,2.7494990333977454e-13
Slit Width,25
Vignetted,True
Interpolated,False
Wavenumber Correction,0
Raman Intensity Corrected,False
Deconvolved,False
Region,
Laser Power mW,
Battery %,
Device ID,<DeviceID USB USB:0x24aa:0x1000:0:1>
FW Version,10.0.0.10
FPGA Version,035-001
Integration Time,1000
Timestamp,2026-01-21 15:29:26.257183
Note,
Temperature,10.010850297268917
CCD C0,526.0908203125
CCD C1,0.11147542297840118
CCD C2,4.83367011838709e-06
CCD C3,-3.902286493939755e-09
CCD Offset,0
CCD Gain,1.9
CCD Offset Odd,0
CCD Gain Odd,1.9
Laser Wavelength,532.1
Laser Enable,False
Laser Power %,100
Laser Temperature,0
Pixel Count,2048

Pixel,Wavelength,Wavenumber,Processed
80,535.04,103.19,1372.00
81,535.15,107.11,1326.67
82,535.26,111.03,1285.00
83,535.37,114.94,1252.67
84,535.49,118.85,1225.33
85,535.60,122.77,1223.33
86,535.71,126.68,1216.33
87,535.82,130.59,1200.00
88,535.94,134.50,1181.67
89,536.05,138.40,1170.33
90,536.16,142.31,1174.67
91,536.27,146.21,1153.67
92,536.38,150.12,1136.00
93,536.50,154.02,1136.67
94,536.61,157.92,1142.00
95,536.72,161.82,1140.00
96,536.83,165.71,1128.00
97,536.95,169.61,1119.67
98,537.06,173.50,1114.00
99,537.17,177.40,1116.33
100,537.28,181.29,1129.67
101,537.40,185.18,1139.00
102,537.51,189.07,1157.00
103,537.62,192.96,1141.67
104,537.73,196.84,1160.00
105,537.84,200.73,1171.33
106,537.96,204.61,1199.33
107,538.07,208.49,1190.67
108,538.18,212.37,1202.67
109,538.29,216.25,1237.33
110,538.41,220.13,1284.67
111,538.52,224.01,1327.67
112,538.63,227.88,1417.00
113,538.74,231.76,1591.67
114,538.86,235.63,1840.33
115,538.97,239.50,2111.67
116,539.08,243.37,2347.67
117,539.19,247.24,2540.00
118,539.31,251.11,2719.33
119,539.42,254.97,2894.67
120,539.53,258.84,2927.00
121,539.64,262.70,2682.67
122,539.76,266.56,2224.00
123,539.87,270.42,1765.33
124,539.98,274.28,1476.67
125,540.09,278.14,1323.33
126,540.21,281.99,1255.67
127,540.32,285.85,1216.33
128,540.43,289.70,1194.33
129,540.54,293.55,1191.67
130,540.66,297.40,1188.67
131,540.77,301.25,1201.33
132,540.88,305.10,1192.33
133,540.99,308.95,1205.00
134,541.11,312.79,1203.00
135,541.22,316.64,1202.33
136,541.33,320.48,1191.00
137,541.44,324.32,1203.67
138,541.56,328.16,1216.33
139,541.67,332.00,1264.33
140,541.78,335.84,1360.00
141,541.89,339.67,1590.00
142,542.01,343.50,1888.67
143,542.12,347.34,2245.67
144,542.23,351.17,2549.33
145,542.34,355.00,2814.33
146,542.46,358.83,3029.33
147,542.57,362.65,3127.33
148,542.68,366.48,2902.33
149,542.80,370.30,2362.67
150,542.91,374.13,1772.33
151,543.02,377.95,1396.33
152,543.13,381.77,1248.67
153,543.25,385.59,1208.67
154,543.36,389.41,1196.67
155,543.47,393.22,1186.00
156,543.58,397.04,1161.33
157,543.70,400.85,1149.33
158,543.81,404.66,1156.33
159,543.92,408.47,1149.33
160,544.03,412.28,1153.00
161,544.15,416.09,1150.33
162,544.26,419.90,1175.00
163,544.37,423.70,1157.33
164,544.49,427.51,1149.33
165,544.60,431.31,1130.33
166,544.71,435.11,1135.33
167,544.82,438.91,1128.33
168,544.94,442.71,1127.33
169,545.05,446.51,1122.33
170,545.16,450.30,1131.00
171,545.28,454.10,1132.67
172,545.39,457.89,1163.00
173,545.50,461.68,1172.67
174,545.61,465.47,1183.00
175,545.73,469.26,1197.00
176,545.84,473.05,1191.33
177,545.95,476.83,1195.00
178,546.06,480.62,1178.00
179,546.18,484.40,1174.67
180,546.29,488.18,1155.00
181,546.40,491.96,1136.67
182,546.52,495.74,1139.33
183,546.63,499.52,1153.33
184,546.74,503.30,1150.00
185,546.85,507.07,1141.67
186,546.97,510.84,1127.00
187,547.08,514.62,1138.33
188,547.19,518.39,1134.67
189,547.31,522.16,1148.00
190,547.42,525.93,1124.00
191,547.53,529.69,1120.67
192,547.65,533.46,1108.67
193,547.76,537.22,1139.67
194,547.87,540.98,1138.00
195,547.98,544.74,1139.33
196,548.10,548.50,1121.00
197,548.21,552.26,1132.33
198,548.32,556.02,1142.33
199,548.44,559.78,1145.00
200,548.55,563.53,1134.00
201,548.66,567.28,1108.00
202,548.77,571.03,1107.33
203,548.89,574.79,1108.00
204,549.00,578.53,1122.67
205,549.11,582.28,1113.00
206,549.23,586.03,1131.33
207,549.34,589.77,1120.00
208,549.45,593.52,1122.00
209,549.57,597.26,1110.67
210,549.68,601.00,1108.67
211,549.79,604.74,1115.00
212,549.90,608.48,1124.00
213,550.02,612.21,1136.00
214,550.13,615.95,1141.67
215,550.24,619.68,1140.33
216,550.36,623.41,1162.67
217,550.47,627.14,1183.00
218,550.58,630.87,1190.67
219,550.70,634.60,1196.33
220,550.81,638.33,1225.33
221,550.92,642.05,1334.00
222,551.03,645.78,1603.00
223,551.15,649.50,2039.00
224,551.26,653.22,2568.00
225,551.37,656.94,3076.00
226,551.49,660.66,3507.00
227,551.60,664.38,3645.00
228,551.71,668.09,3318.33
229,551.83,671.81,2559.00
230,551.94,675.52,1829.00
231,552.05,679.23,1374.67
232,552.17,682.94,1229.00
233,552.28,686.65,1177.67
234,552.39,690.36,1152.00
235,552.50,694.07,1138.00
236,552.62,697.77,1137.33
237,552.73,701.47,1195.33
238,552.84,705.18,1210.67
239,552.96,708.88,1236.00
240,553.07,712.58,1225.33
241,553.18,716.27,1251.33
242,553.30,719.97,1252.00
243,553.41,723.67,1283.00
244,553.52,727.36,1334.33
245,553.64,731.05,1401.33
246,553.75,734.74,1475.33
247,553.86,738.43,1551.67
248,553.98,742.12,1657.33
249,554.09,745.81,1718.00
250,554.20,749.49,1785.33
251,554.32,753.18,1796.67
252,554.43,756.86,1811.33
253,554.54,760.54,1762.33
254,554.65,764.22,1711.67
255,554.77,767.90,1627.67
256,554.88,771.58,1546.33
257,554.99,775.25,1466.00
258,555.11,778.93,1387.33
259,555.22,782.60,1333.33
260,555.33,786.27,1271.33
261,555.45,789.94,1217.67
262,555.56,793.61,1176.67
263,555.67,797.28,1164.00
264,555.79,800.95,1165.33
265,555.90,804.61,1145.00
266,556.01,808.28,1136.67
267,556.13,811.94,1122.67
268,556.24,815.60,1119.00
269,556.35,819.26,1109.67
270,556.47,822.92,1097.00
271,556.58,826.57,1085.00
272,556.69,830.23,1085.00
273,556.81,833.88,1092.67
274,556.92,837.54,1100.67
275,557.03,841.19,1095.00
276,557.15,844.84,1098.00
277,557.26,848.49,1106.33
278,557.37,852.13,1110.00
279,557.49,855.78,1099.33
280,557.60,859.42,1089.33
281,557.71,863.07,1094.00
282,557.83,866.71,1094.67
283,557.94,870.35,1092.67
284,558.05,873.99,1096.33
285,558.17,877.62,1097.67
286,558.28,881.26,1100.67
287,558.39,884.89,1090.67
288,558.51,888.53,1099.33
289,558.62,892.16,1095.00
290,558.73,895.79,1089.67
291,558.85,899.42,1136.67
292,558.96,903.05,1145.67
293,559.07,906.67,1135.00
294,559.19,910.30,1092.33
295,559.30,913.92,1099.67
296,559.41,917.55,1107.33
297,559.53,921.17,1104.33
298,559.64,924.79,1095.00
299,559.75,928.41,1099.33
300,559.87,932.02,1089.67
301,559.98,935.64,1085.33
302,560.09,939.25,1095.00
303,560.21,942.86,1110.33
304,560.32,946.48,1123.33
305,560.43,950.09,1114.33
306,560.55,953.70,1139.00
307,560.66,957.30,1127.00
308,560.77,960.91,1132.67
309,560.89,964.51,1089.67
310,561.00,968.12,1091.00
311,561.11,971.72,1076.67
312,561.23,975.32,1086.67
313,561.34,978.92,1084.33
314,561.45,982.52,1089.33
315,561.57,986.11,1084.33
316,561.68,989.71,1095.00
317,561.79,993.30,1097.33
318,561.91,996.89,1101.00
319,562.02,1000.48,1099.67
320,562.13,1004.07,1098.00
321,562.25,1007.66,1100.00
322,562.36,1011.25,1091.67
323,562.47,1014.83,1082.00
324,562.59,1018.42,1079.67
325,562.70,1022.00,1081.67
326,562.81,1025.58,1103.33
327,562.93,1029.16,1112.67
328,563.04,1032.74,1110.67
329,563.15,1036.32,1115.00
330,563.27,1039.89,1095.33
331,563.38,1043.47,1100.67
332,563.49,1047.04,1082.33
333,563.61,1050.61,1093.67
334,563.72,1054.18,1086.00
335,563.83,1057.75,1091.00
336,563.95,1061.32,1079.00
337,564.06,1064.89,1094.67
338,564.17,1068.45,1110.00
339,564.29,1072.02,1133.00
340,564.40,1075.58,1114.67
341,564.51,1079.14,1103.67
342,564.63,1082.70,1092.67
343,564.74,1086.26,1097.33
344,564.86,1089.81,1107.00
345,564.97,1093.37,1099.67
346,565.08,1096.92,1098.33
347,565.20,1100.47,1080.67
348,565.31,1104.03,1102.00
349,565.42,1107.58,1102.67
350,565.54,1111.12,1114.67
351,565.65,1114.67,1099.00
352,565.76,1118.22,1111.67
353,565.88,1121.76,1110.33
354,565.99,1125.31,1129.33
355,566.10,1128.85,1132.33
356,566.22,1132.39,1131.00
357,566.33,1135.93,1107.33
358,566.44,1139.46,1100.33
359,566.56,1143.00,1093.33
360,566.67,1146.54,1102.33
361,566.78,1150.07,1097.33
362,566.90,1153.60,1106.33
363,567.01,1157.13,1113.33
364,567.12,1160.66,1117.67
365,567.24,1164.19,1122.67
366,567.35,1167.72,1120.00
367,567.47,1171.24,1128.33
368,567.58,1174.77,1127.67
369,567.69,1178.29,1127.00
370,567.81,1181.81,1138.33
371,567.92,1185.33,1146.67
372,568.03,1188.85,1160.67
373,568.15,1192.36,1187.33
374,568.26,1195.88,1228.33
375,568.37,1199.40,1290.33
376,568.49,1202.91,1328.33
377,568.60,1206.42,1387.33
378,568.71,1209.93,1411.33
379,568.83,1213.44,1437.33
380,568.94,1216.95,1398.00
381,569.05,1220.45,1341.00
382,569.17,1223.96,1257.33
383,569.28,1227.46,1208.00
384,569.40,1230.96,1172.00
385,569.51,1234.46,1161.33
386,569.62,1237.96,1134.67
387,569.74,1241.46,1141.00
388,569.85,1244.96,1145.33
389,569.96,1248.45,1156.33
390,570.08,1251.95,1145.67
391,570.19,1255.44,1126.00
392,570.30,1258.93,1127.67
393,570.42,1262.42,1128.33
394,570.53,1265.91,1120.33
395,570.64,1269.40,1107.00
396,570.76,1272.88,1095.67
397,570.87,1276.37,1107.00
398,570.98,1279.85,1090.00
399,571.10,1283.33,1087.33
400,571.21,1286.81,1079.67
401,571.33,1290.29,1089.33
402,571.44,1293.77,1084.33
403,571.55,1297.25,1080.00
404,571.67,1300.72,1086.33
405,571.78,1304.20,1114.67
406,571.89,1307.67,1110.00
407,572.01,1311.14,1104.67
408,572.12,1314.61,1078.33
409,572.23,1318.08,1106.33
410,572.35,1321.54,1109.00
411,572.46,1325.01,1126.00
412,572.57,1328.47,1109.00
413,572.69,1331.94,1107.00
414,572.80,1335.40,1090.00
415,572.91,1338.86,1084.33
416,573.03,1342.32,1078.67
417,573.14,1345.78,1086.00
418,573.26,1349.23,1096.00
419,573.37,1352.69,1106.33
420,573.48,1356.14,1105.67
421,573.60,1359.59,1083.33
422,573.71,1363.04,1068.67
423,573.82,1366.49,1065.67
424,573.94,1369.94,1084.67
425,574.05,1373.39,1089.67
426,574.16,1376.83,1089.67
427,574.28,1380.27,1088.00
428,574.39,1383.72,1097.00
429,574.50,1387.16,1103.33
430,574.62,1390.60,1088.00
431,574.73,1394.04,1093.67
432,574.85,1397.47,1076.00
433,574.96,1400.91,1097.00
434,575.07,1404.34,1081.67
435,575.19,1407.78,1098.00
436,575.30,1411.21,1083.33
437,575.41,1414.64,1088.00
438,575.53,1418.07,1086.00
439,575.64,1421.50,1105.00
440,575.75,1424.92,1096.67
441,575.87,1428.35,1099.33
442,575.98,1431.77,1079.00
443,576.09,1435.19,1098.00
444,576.21,1438.61,1095.33
445,576.32,1442.03,1102.33
446,576.44,1445.45,1102.33
447,576.55,1448.87,1099.33
448,576.66,1452.28,1121.67
449,576.78,1455.70,1132.33
450,576.89,1459.11,1144.33
451,577.00,1462.52,1131.00
452,577.12,1465.93,1131.00
453,577.23,1469.34,1131.67
454,577.34,1472.75,1146.67
455,577.46,1476.15,1143.67
456,577.57,1479.56,1156.33
457,577.68,1482.96,1152.67
458,577.80,1486.36,1165.67
459,577.91,1489.76,1154.33
460,578.02,1493.16,1157.00
461,578.14,1496.56,1150.67
462,578.25,1499.96,1157.67
463,578.37,1503.35,1160.00
464,578.48,1506.75,1161.33
465,578.59,1510.14,1160.67
466,578.71,1513.53,1154.33
467,578.82,1516.92,1159.33
468,578.93,1520.31,1156.00
469,579.05,1523.70,1154.00
470,579.16,1527.08,1131.33
471,579.27,1530.47,1125.00
472,579.39,1533.85,1118.33
473,579.50,1537.23,1121.00
474,579.61,1540.61,1125.00
475,579.73,1543.99,1126.00
476,579.84,1547.37,1114.67
477,579.96,1550.75,1115.33
478,580.07,1554.12,1105.33
479,580.18,1557.49,1116.00
480,580.30,1560.87,1109.67
481,580.41,1564.24,1121.00
482,580.52,1567.61,1115.33
483,580.64,1570.98,1107.00
484,580.75,1574.34,1097.67
485,580.86,1577.71,1101.33
486,580.98,1581.07,1095.00
487,581.09,1584.44,1092.33
488,581.20,1587.80,1116.33
489,581.32,1591.16,1117.00
490,581.43,1594.52,1131.00
491,581.54,1597.87,1107.67
492,581.66,1601.23,1114.00
493,581.77,1604.59,1110.67
494,581.89,1607.94,1103.00
495,582.00,1611.29,1098.67
496,582.11,1614.64,1091.33
497,582.23,1617.99,1092.00
498,582.34,1621.34,1095.00
499,582.45,1624.69,1101.67
500,582.57,1628.03,1099.33
501,582.68,1631.38,1124.00
502,582.79,1634.72,1114.67
503,582.91,1638.06,1143.00
504,583.02,1641.40,1139.33
505,583.13,1644.74,1139.33
506,583.25,1648.08,1109.67
507,583.36,1651.41,1099.33
508,583.47,1654.75,1110.00
509,583.59,1658.08,1128.33
510,583.70,1661.41,1131.67
511,583.81,1664.75,1117.33
512,583.93,1668.08,1107.67
513,584.04,1671.40,1103.00
514,584.16,1674.73,1120.67
515,584.27,1678.06,1121.33
516,584.38,1681.38,1124.00
517,584.50,1684.70,1111.33
518,584.61,1688.02,1118.33
519,584.72,1691.34,1098.67
520,584.84,1694.66,1094.33
521,584.95,1697.98,1089.33
522,585.06,1701.30,1092.67
523,585.18,1704.61,1093.67
524,585.29,1707.93,1089.33
525,585.40,1711.24,1093.67
526,585.52,1714.55,1083.67
527,585.63,1717.86,1090.33
528,585.74,1721.17,1091.67
529,585.86,1724.47,1103.00
530,585.97,1727.78,1074.67
531,586.08,1731.08,1076.33
532,586.20,1734.38,1084.67
533,586.31,1737.69,1116.33
534,586.43,1740.99,1121.67
535,586.54,1744.29,1123.33
536,586.65,1747.58,1122.00
537,586.77,1750.88,1109.33
538,586.88,1754.17,1107.67
539,586.99,1757.47,1109.00
540,587.11,1760.76,1100.00
541,587.22,1764.05,1095.00
542,587.33,1767.34,1083.00
543,587.45,1770.63,1109.67
544,587.56,1773.91,1099.33
545,587.67,1777.20,1103.00
546,587.79,1780.48,1089.67
547,587.90,1783.77,1086.67
548,588.01,1787.05,1087.33
549,588.13,1790.33,1095.67
550,588.24,1793.61,1102.67
551,588.35,1796.89,1100.67
552,588.47,1800.16,1103.67
553,588.58,1803.44,1107.33
554,588.69,1806.71,1102.33
555,588.81,1809.98,1093.00
556,588.92,1813.25,1097.33
557,589.03,1816.52,1101.33
558,589.15,1819.79,1107.67
559,589.26,1823.06,1102.00
560,589.37,1826.32,1091.67
561,589.49,1829.59,1084.00
562,589.60,1832.85,1082.33
563,589.71,1836.11,1100.67
564,589.83,1839.37,1095.00
565,589.94,1842.63,1101.67
566,590.06,1845.89,1101.67
567,590.17,1849.15,1103.67
568,590.28,1852.40,1108.33
569,590.40,1855.65,1100.33
570,590.51,1858.91,1105.33
571,590.62,1862.16,1095.67
572,590.74,1865.41,1098.67
573,590.85,1868.66,1101.67
574,590.96,1871.90,1108.67
575,591.08,1875.15,1106.33
576,591.19,1878.39,1104.33
577,591.30,1881.64,1103.67
578,591.42,1884.88,1100.33
579,591.53,1888.12,1109.33
580,591.64,1891.36,1096.00
581,591.76,1894.59,1092.33
582,591.87,1897.83,1077.33
583,591.98,1901.07,1089.33
584,592.10,1904.30,1091.67
585,592.21,1907.53,1101.00
586,592.32,1910.76,1115.67
587,592.44,1913.99,1120.33
588,592.55,1917.22,1110.33
589,592.66,1920.45,1097.67
590,592.78,1923.68,1106.33
591,592.89,1926.90,1118.33
592,593.00,1930.12,1114.00
593,593.12,1933.34,1114.67
594,593.23,1936.57,1106.33
595,593.34,1939.78,1095.67
596,593.46,1943.00,1078.00
597,593.57,1946.22,1088.00
598,593.68,1949.43,1112.00
599,593.80,1952.65,1126.67
600,593.91,1955.86,1118.00
601,594.02,1959.07,1130.00
602,594.14,1962.28,1202.67
603,594.25,1965.49,1240.67
604,594.36,1968.70,1206.33
605,594.48,1971.91,1126.67
606,594.59,1975.11,1090.00
607,594.70,1978.31,1102.00
608,594.82,1981.52,1106.33
609,594.93,1984.72,1098.67
610,595.04,1987.92,1093.00
611,595.16,1991.11,1084.00
612,595.27,1994.31,1095.33
613,595.38,1997.51,1094.67
614,595.49,2000.70,1108.00
615,595.61,2003.89,1087.00
616,595.72,2007.09,1086.33
617,595.83,2010.28,1076.33
618,595.95,2013.47,1074.00
619,596.06,2016.65,1070.33
620,596.17,2019.84,1072.67
621,596.29,2023.03,1087.67
622,596.40,2026.21,1095.33
623,596.51,2029.39,1083.33
624,596.63,2032.57,1078.33
625,596.74,2035.75,1079.67
626,596.85,2038.93,1079.33
627,596.97,2042.11,1096.33
628,597.08,2045.28,1096.33
629,597.19,2048.46,1102.67
630,597.31,2051.63,1092.67
631,597.42,2054.81,1081.00
632,597.53,2057.98,1089.67
633,597.65,2061.15,1090.33
634,597.76,2064.31,1106.33
635,597.87,2067.48,1097.00
636,597.99,2070.65,1100.00
637,598.10,2073.81,1086.00
638,598.21,2076.97,1091.00
639,598.32,2080.13,1094.33
640,598.44,2083.29,1101.33
641,598.55,2086.45,1100.67
642,598.66,2089.61,1095.00
643,598.78,2092.77,1107.00
644,598.89,2095.92,1112.67
645,599.00,2099.08,1108.67
646,599.12,2102.23,1094.00
647,599.23,2105.38,1081.33
648,599.34,2108.53,1100.33
649,599.46,2111.68,1100.33
650,599.57,2114.83,1106.67
651,599.68,2117.97,1096.00
652,599.80,2121.12,1105.00
653,599.91,2124.26,1104.33
654,600.02,2127.40,1103.00
655,600.14,2130.54,1110.67
656,600.25,2133.68,1115.00
657,600.36,2136.82,1120.67
658,600.47,2139.96,1116.67
659,600.59,2143.09,1112.33
660,600.70,2146.23,1095.33
661,600.81,2149.36,1082.67
662,600.93,2152.49,1089.00
663,601.04,2155.62,1084.67
664,601.15,2158.75,1082.33
665,601.27,2161.88,1088.00
666,601.38,2165.00,1108.67
667,601.49,2168.13,1112.33
668,601.60,2171.25,1113.67
669,601.72,2174.38,1103.67
670,601.83,2177.50,1090.33
671,601.94,2180.62,1077.67
672,602.06,2183.74,1074.67
673,602.17,2186.85,1091.33
674,602.28,2189.97,1086.33
675,602.40,2193.08,1088.00
676,602.51,2196.20,1090.33
677,602.62,2199.31,1090.33
678,602.74,2202.42,1097.33
679,602.85,2205.53,1102.33
680,602.96,2208.64,1109.33
681,603.07,2211.75,1097.33
682,603.19,2214.85,1091.67
683,603.30,2217.96,1091.67
684,603.41,2221.06,1101.33
685,603.53,2224.16,1088.67
686,603.64,2227.26,1091.00
687,603.75,2230.36,1096.67
688,603.86,2233.46,1093.67
689,603.98,2236.56,1096.33
690,604.09,2239.65,1086.00
691,604.20,2242.74,1103.00
692,604.32,2245.84,1098.67
693,604.43,2248.93,1097.67
694,604.54,2252.02,1083.67
695,604.66,2255.11,1082.33
696,604.77,2258.20,1093.00
697,604.88,2261.28,1098.33
698,604.99,2264.37,1114.00
699,605.11,2267.45,1102.00
700,605.22,2270.53,1107.67
701,605.33,2273.61,1094.33
702,605.45,2276.69,1095.67
703,605.56,2279.77,1092.33
704,605.67,2282.85,1086.67
705,605.78,2285.93,1096.67
706,605.90,2289.00,1089.67
707,606.01,2292.07,1094.67
708,606.12,2295.15,1099.67
709,606.24,2298.22,1091.67
710,606.35,2301.29,1094.33
711,606.46,2304.35,1067.00
712,606.57,2307.42,1094.00
713,606.69,2310.49,1097.67
714,606.80,2313.55,1118.00
715,606.91,2316.62,1101.67
716,607.03,2319.68,1105.67
717,607.14,2322.74,1095.00
718,607.25,2325.80,1103.67
719,607.36,2328.85,1098.67
720,607.48,2331.91,1115.67
721,607.59,2334.97,1125.33
722,607.70,2338.02,1115.00
723,607.81,2341.07,1105.67
724,607.93,2344.13,1101.33
725,608.04,2347.18,1109.67
726,608.15,2350.22,1111.33
727,608.27,2353.27,1097.33
728,608.38,2356.32,1095.33
729,608.49,2359.36,1101.67
730,608.60,2362.41,1120.67
731,608.72,2365.45,1115.67
732,608.83,2368.49,1114.67
733,608.94,2371.53,1104.00
734,609.05,2374.57,1128.67
735,609.17,2377.61,1143.00
736,609.28,2380.64,1144.67
737,609.39,2383.68,1129.00
738,609.51,2386.71,1108.33
739,609.62,2389.75,1120.33
740,609.73,2392.78,1135.33
741,609.84,2395.81,1160.00
742,609.96,2398.84,1161.33
743,610.07,2401.86,1148.67
744,610.18,2404.89,1173.33
745,610.29,2407.91,1179.00
746,610.41,2410.94,1184.67
747,610.52,2413.96,1175.67
748,610.63,2416.98,1214.33
749,610.74,2420.00,1253.67
750,610.86,2423.02,1264.33
751,610.97,2426.03,1268.00
752,611.08,2429.05,1255.33
753,611.19,2432.07,1274.33
754,611.31,2435.08,1247.33
755,611.42,2438.09,1248.00
756,611.53,2441.10,1203.67
757,611.65,2444.11,1186.67
758,611.76,2447.12,1167.00
759,611.87,2450.13,1171.00
760,611.98,2453.13,1170.33
761,612.10,2456.14,1181.00
762,612.21,2459.14,1145.00
763,612.32,2462.14,1129.67
764,612.43,2465.14,1110.33
765,612.55,2468.14,1148.33
766,612.66,2471.14,1156.00
767,612.77,2474.13,1149.00
768,612.88,2477.13,1119.00
769,613.00,2480.12,1115.00
770,613.11,2483.12,1112.33
771,613.22,2486.11,1117.00
772,613.33,2489.10,1120.33
773,613.45,2492.09,1126.00
774,613.56,2495.08,1120.00
775,613.67,2498.06,1146.67
776,613.78,2501.05,1153.00
777,613.90,2504.03,1147.33
778,614.01,2507.02,1110.00
779,614.12,2510.00,1110.00
780,614.23,2512.98,1123.33
781,614.34,2515.96,1135.33
782,614.46,2518.93,1132.33
783,614.57,2521.91,1125.33
784,614.68,2524.89,1113.33
785,614.79,2527.86,1101.67
786,614.91,2530.83,1099.33
787,615.02,2533.80,1113.67
788,615.13,2536.77,1113.33
789,615.24,2539.74,1108.33
790,615.36,2542.71,1113.00
791,615.47,2545.68,1110.33
792,615.58,2548.64,1118.33
793,615.69,2551.61,1105.67
794,615.81,2554.57,1112.67
795,615.92,2557.53,1100.00
796,616.03,2560.49,1094.67
797,616.14,2563.45,1105.33
798,616.25,2566.41,1111.00
799,616.37,2569.36,1108.67
800,616.48,2572.32,1104.33
801,616.59,2575.27,1112.00
802,616.70,2578.22,1110.67
803,616.82,2581.17,1103.00
804,616.93,2584.12,1108.67
805,617.04,2587.07,1108.00
806,617.15,2590.02,1105.33
807,617.27,2592.97,1101.67
808,617.38,2595.91,1098.00
809,617.49,2598.85,1096.33
810,617.60,2601.80,1081.00
811,617.71,2604.74,1078.33
812,617.83,2607.68,1075.67
813,617.94,2610.62,1089.67
814,618.05,2613.55,1099.33
815,618.16,2616.49,1092.33
816,618.27,2619.43,1110.00
817,618.39,2622.36,1111.67
818,618.50,2625.29,1125.00
819,618.61,2628.22,1102.33
820,618.72,2631.15,1091.67
821,618.84,2634.08,1082.33
822,618.95,2637.01,1074.67
823,619.06,2639.93,1084.67
824,619.17,2642.86,1092.00
825,619.28,2645.78,1101.00
826,619.40,2648.71,1119.67
827,619.51,2651.63,1125.00
828,619.62,2654.55,1125.67
829,619.73,2657.47,1100.33
830,619.84,2660.38,1094.00
831,619.96,2663.30,1091.33
832,620.07,2666.21,1095.67
833,620.18,2669.13,1095.00
834,620.29,2672.04,1102.00
835,620.40,2674.95,1110.67
836,620.52,2677.86,1105.67
837,620.63,2680.77,1104.33
838,620.74,2683.68,1111.33
839,620.85,2686.58,1117.00
840,620.96,2689.49,1117.67
841,621.08,2692.39,1103.33
842,621.19,2695.29,1111.33
843,621.30,2698.19,1122.00
844,621.41,2701.09,1123.00
845,621.52,2703.99,1110.33
846,621.64,2706.89,1090.67
847,621.75,2709.79,1093.33
848,621.86,2712.68,1091.00
849,621.97,2715.58,1091.00
850,622.08,2718.47,1099.33
851,622.20,2721.36,1112.00
852,622.31,2724.25,1103.33
853,622.42,2727.14,1094.33
854,622.53,2730.03,1095.00
855,622.64,2732.91,1102.67
856,622.76,2735.80,1103.33
857,622.87,2738.68,1086.00
858,622.98,2741.56,1092.67
859,623.09,2744.44,1089.00
860,623.20,2747.32,1107.00
861,623.31,2750.20,1094.67
862,623.43,2753.08,1092.00
863,623.54,2755.96,1079.33
864,623.65,2758.83,1088.67
865,623.76,2761.71,1083.00
866,623.87,2764.58,1100.00
867,623.99,2767.45,1098.67
868,624.10,2770.32,1105.00
869,624.21,2773.19,1100.00
870,624.32,2776.06,1095.67
871,624.43,2778.92,1112.00
872,624.54,2781.79,1122.67
873,624.66,2784.65,1129.67
874,624.77,2787.51,1126.00
875,624.88,2790.38,1110.67
876,624.99,2793.24,1112.33
877,625.10,2796.09,1104.67
878,625.21,2798.95,1106.00
879,625.33,2801.81,1106.67
880,625.44,2804.66,1095.33
881,625.55,2807.52,1090.33
882,625.66,2810.37,1088.67
883,625.77,2813.22,1097.00
884,625.88,2816.07,1109.00
885,626.00,2818.92,1116.00
886,626.11,2821.77,1107.00
887,626.22,2824.62,1098.67
888,626.33,2827.46,1092.67
889,626.44,2830.31,1109.00
890,626.55,2833.15,1095.33
891,626.67,2835.99,1098.00
892,626.78,2838.83,1096.33
893,626.89,2841.67,1111.33
894,627.00,2844.51,1104.33
895,627.11,2847.35,1106.00
896,627.22,2850.18,1111.00
897,627.34,2853.02,1109.67
898,627.45,2855.85,1110.33
899,627.56,2858.68,1103.00
900,627.67,2861.51,1094.33
901,627.78,2864.34,1091.33
902,627.89,2867.17,1092.33
903,628.00,2870.00,1120.67
904,628.12,2872.82,1125.67
905,628.23,2875.65,1125.67
906,628.34,2878.47,1113.67
907,628.45,2881.29,1105.33
908,628.56,2884.11,1099.00
909,628.67,2886.93,1096.67
910,628.78,2889.75,1125.33
911,628.90,2892.57,1116.67
912,629.01,2895.38,1129.67
913,629.12,2898.20,1115.67
914,629.23,2901.01,1131.33
915,629.34,2903.82,1113.00
916,629.45,2906.63,1104.00
917,629.56,2909.44,1100.33
918,629.68,2912.25,1104.33
919,629.79,2915.06,1100.00
920,629.90,2917.87,1108.67
921,630.01,2920.67,1110.33
922,630.12,2923.48,1124.33
923,630.23,2926.28,1124.00
924,630.34,2929.08,1123.67
925,630.45,2931.88,1113.67
926,630.57,2934.68,1104.67
927,630.68,2937.48,1119.67
928,630.79,2940.27,1126.00
929,630.90,2943.07,1136.00
930,631.01,2945.86,1126.00
931,631.12,2948.65,1112.67
932,631.23,2951.45,1123.00
933,631.34,2954.24,1126.00
934,631.46,2957.03,1144.33
935,631.57,2959.81,1127.00
936,631.68,2962.60,1143.00
937,631.79,2965.39,1141.00
938,631.90,2968.17,1150.67
939,632.01,2970.95,1137.33
940,632.12,2973.73,1138.00
941,632.23,2976.52,1150.67
942,632.34,2979.29,1165.33
943,632.46,2982.07,1179.33
944,632.57,2984.85,1204.67
945,632.68,2987.63,1229.67
946,632.79,2990.40,1268.33
947,632.90,2993.17,1322.67
948,633.01,2995.95,1408.33
949,633.12,2998.72,1554.33
950,633.23,3001.49,1770.33
951,633.34,3004.26,2069.00
952,633.46,3007.02,2400.67
953,633.57,3009.79,2745.33
954,633.68,3012.55,3030.00
955,633.79,3015.32,3161.67
956,633.90,3018.08,3044.00
957,634.01,3020.84,2718.00
958,634.12,3023.60,2321.67
959,634.23,3026.36,1965.33
960,634.34,3029.12,1719.33
961,634.45,3031.87,1559.33
962,634.56,3034.63,1465.67
963,634.68,3037.38,1393.67
964,634.79,3040.14,1335.33
965,634.90,3042.89,1288.00
966,635.01,3045.64,1256.67
967,635.12,3048.39,1231.00
968,635.23,3051.13,1234.00
969,635.34,3053.88,1214.00
970,635.45,3056.63,1201.67
971,635.56,3059.37,1189.00
972,635.67,3062.11,1215.33
973,635.78,3064.86,1228.67
974,635.90,3067.60,1237.00
975,636.01,3070.34,1205.67
976,636.12,3073.08,1185.67
977,636.23,3075.81,1159.67
978,636.34,3078.55,1148.67
979,636.45,3081.28,1134.67
980,636.56,3084.02,1132.33
981,636.67,3086.75,1131.67
982,636.78,3089.48,1130.33
983,636.89,3092.21,1108.00
984,637.00,3094.94,1117.00
985,637.11,3097.67,1126.33
986,637.22,3100.39,1139.00
987,637.33,3103.12,1127.67
988,637.45,3105.84,1132.33
989,637.56,3108.56,1138.67
990,637.67,3111.29,1135.33
991,637.78,3114.01,1117.67
992,637.89,3116.73,1115.33
993,638.00,3119.44,1127.33
994,638.11,3122.16,1127.67
995,638.22,3124.88,1115.33
996,638.33,3127.59,1108.00
997,638.44,3130.30,1107.67
998,638.55,3133.02,1099.67
999,638.66,3135.73,1092.67
1000,638.77,3138.44,1087.33
1001,638.88,3141.14,1088.00
1002,638.99,3143.85,1086.00
1003,639.10,3146.56,1085.67
1004,639.21,3149.26,1088.00
1005,639.33,3151.97,1095.67
1006,639.44,3154.67,1113.33
1007,639.55,3157.37,1114.00
1008,639.66,3160.07,1112.67
1009,639.77,3162.77,1103.67
1010,639.88,3165.47,1111.33
1011,639.99,3168.16,1128.33
1012,640.10,3170.86,1127.00
1013,640.21,3173.55,1125.00
1014,640.32,3176.25,1115.00
1015,640.43,3178.94,1108.67
1016,640.54,3181.63,1120.67
1017,640.65,3184.32,1112.33
1018,640.76,3187.00,1125.00
1019,640.87,3189.69,1136.00
1020,640.98,3192.38,1126.67
1021,641.09,3195.06,1114.00
1022,641.20,3197.75,1087.33
1023,641.31,3200.43,1096.67
1024,641.42,3203.11,1096.00
1025,641.53,3205.79,1096.67
1026,641.64,3208.47,1102.33
1027,641.75,3211.15,1111.33
1028,641.86,3213.82,1112.00
1029,641.97,3216.50,1097.00
1030,642.08,3219.17,1087.67
1031,642.19,3221.84,1089.33
1032,642.30,3224.51,1091.67
1033,642.41,3227.19,1096.00
1034,642.52,3229.85,1098.00
1035,642.63,3232.52,1103.00
1036,642.74,3235.19,1108.00
1037,642.86,3237.86,1099.67
1038,642.97,3240.52,1101.00
1039,643.08,3243.18,1108.67
1040,643.19,3245.84,1108.33
1041,643.30,3248.51,1099.67
1042,643.41,3251.17,1092.00
1043,643.52,3253.82,1093.67
1044,643.63,3256.48,1107.33
1045,643.74,3259.14,1093.33
1046,643.85,3261.79,1106.00
1047,643.96,3264.45,1113.67
1048,644.07,3267.10,1128.33
1049,644.18,3269.75,1110.67
1050,644.29,3272.40,1091.67
1051,644.40,3275.05,1079.67
1052,644.51,3277.70,1081.00
1053,644.62,3280.35,1093.00
1054,644.73,3282.99,1096.00
1055,644.84,3285.64,1111.67
1056,644.95,3288.28,1108.00
1057,645.06,3290.92,1117.00
1058,645.17,3293.56,1102.67
1059,645.28,3296.20,1101.33
1060,645.39,3298.84,1087.33
1061,645.50,3301.48,1093.67
1062,645.61,3304.11,1078.00
1063,645.71,3306.75,1118.67
1064,645.82,3309.38,1117.33
1065,645.93,3312.02,1123.00
1066,646.04,3314.65,1087.33
1067,646.15,3317.28,1075.33
1068,646.26,3319.91,1079.67
1069,646.37,3322.53,1086.67
1070,646.48,3325.16,1095.33
1071,646.59,3327.79,1096.00
1072,646.70,3330.41,1100.33
1073,646.81,3333.04,1148.00
1074,646.92,3335.66,1153.00
1075,647.03,3338.28,1153.67
1076,647.14,3340.90,1109.33
1077,647.25,3343.52,1104.33
1078,647.36,3346.13,1094.33
1079,647.47,3348.75,1100.00
1080,647.58,3351.37,1098.67
1081,647.69,3353.98,1100.67
1082,647.80,3356.59,1090.67
1083,647.91,3359.20,1094.67
1084,648.02,3361.82,1094.67
1085,648.13,3364.42,1087.67
1086,648.24,3367.03,1088.67
1087,648.35,3369.64,1102.00
1088,648.46,3372.25,1109.33
1089,648.57,3374.85,1102.67
1090,648.68,3377.45,1083.00
1091,648.79,3380.06,1085.00
1092,648.90,3382.66,1100.67
1093,649.00,3385.26,1098.67
1094,649.11,3387.86,1097.33
1095,649.22,3390.45,1081.67
1096,649.33,3393.05,1094.33
1097,649.44,3395.65,1102.00
1098,649.55,3398.24,1108.67
1099,649.66,3400.83,1101.67
1100,649.77,3403.43,1095.33
1101,649.88,3406.02,1080.33
1102,649.99,3408.61,1071.67
1103,650.10,3411.19,1088.67
1104,650.21,3413.78,1101.33
1105,650.32,3416.37,1105.00
1106,650.43,3418.95,1090.67
1107,650.54,3421.54,1093.67
1108,650.65,3424.12,1104.33
1109,650.76,3426.70,1091.67
1110,650.86,3429.28,1086.67
1111,650.97,3431.86,1086.67
1112,651.08,3434.44,1091.67
1113,651.19,3437.02,1093.67
1114,651.30,3439.59,1088.67
1115,651.41,3442.17,1088.00
1116,651.52,3444.74,1075.33
1117,651.63,3447.31,1068.33
1118,651.74,3449.88,1064.67
1119,651.85,3452.45,1072.33
1120,651.96,3455.02,1075.00
1121,652.07,3457.59,1072.33
1122,652.18,3460.16,1083.67
1123,652.28,3462.72,1088.67
1124,652.39,3465.29,1103.33
1125,652.50,3467.85,1098.67
1126,652.61,3470.41,1089.67
1127,652.72,3472.97,1084.67
1128,652.83,3475.53,1107.67
1129,652.94,3478.09,1113.33
1130,653.05,3480.65,1103.67
1131,653.16,3483.20,1082.00
1132,653.27,3485.76,1079.67
1133,653.37,3488.31,1089.67
1134,653.48,3490.86,1083.33
1135,653.59,3493.42,1092.00
1136,653.70,3495.97,1094.00
1137,653.81,3498.52,1107.33
1138,653.92,3501.06,1109.33
1139,654.03,3503.61,1108.00
1140,654.14,3506.16,1108.67
1141,654.25,3508.70,1100.33
1142,654.36,3511.24,1106.00
1143,654.46,3513.79,1092.67
1144,654.57,3516.33,1091.00
1145,654.68,3518.87,1084.33
1146,654.79,3521.41,1098.33
1147,654.90,3523.95,1104.00
1148,655.01,3526.48,1106.33
1149,655.12,3529.02,1086.00
1150,655.23,3531.55,1102.33
1151,655.33,3534.09,1105.67
1152,655.44,3536.62,1116.00
1153,655.55,3539.15,1097.67
1154,655.66,3541.68,1098.00
1155,655.77,3544.21,1102.33
1156,655.88,3546.73,1100.00
1157,655.99,3549.26,1093.33
1158,656.10,3551.79,1089.33
1159,656.20,3554.31,1100.67
1160,656.31,3556.83,1098.00
1161,656.42,3559.36,1104.33
1162,656.53,3561.88,1096.67
1163,656.64,3564.40,1108.67
1164,656.75,3566.91,1097.33
1165,656.86,3569.43,1092.33
1166,656.96,3571.95,1095.00
1167,657.07,3574.46,1097.00
1168,657.18,3576.98,1107.00
1169,657.29,3579.49,1103.00
1170,657.40,3582.00,1106.67
1171,657.51,3584.51,1099.00
1172,657.62,3587.02,1100.33
1173,657.72,3589.53,1101.00
1174,657.83,3592.04,1105.00
1175,657.94,3594.54,1099.33
1176,658.05,3597.05,1092.33
1177,658.16,3599.55,1083.33
1178,658.27,3602.05,1082.67
1179,658.38,3604.55,1093.67
1180,658.48,3607.06,1098.67
1181,658.59,3609.55,1090.00
1182,658.70,3612.05,1096.33
1183,658.81,3614.55,1102.67
1184,658.92,3617.05,1114.00
1185,659.03,3619.54,1098.67
1186,659.13,3622.03,1103.67
1187,659.24,3624.53,1106.67
1188,659.35,3627.02,1110.33
1189,659.46,3629.51,1101.00
1190,659.57,3632.00,1090.33
1191,659.68,3634.48,1087.33
1192,659.78,3636.97,1084.67
1193,659.89,3639.46,1087.67
1194,660.00,3641.94,1096.67
1195,660.11,3644.42,1100.00
1196,660.22,3646.91,1104.00
1197,660.32,3649.39,1112.67
1198,660.43,3651.87,1124.67
1199,660.54,3654.35,1119.67
1200,660.65,3656.82,1173.00
1201,660.76,3659.30,1163.33
1202,660.87,3661.78,1163.33
1203,660.97,3664.25,1095.00
1204,661.08,3666.72,1096.33
1205,661.19,3669.20,1103.00
1206,661.30,3671.67,1106.00
1207,661.41,3674.14,1106.67
1208,661.51,3676.61,1102.33
1209,661.62,3679.07,1096.67
1210,661.73,3681.54,1098.00
1211,661.84,3684.01,1094.33
1212,661.95,3686.47,1086.00
1213,662.05,3688.93,1076.00
1214,662.16,3691.40,1077.33
1215,662.27,3693.86,1078.67
1216,662.38,3696.32,1081.00
1217,662.48,3698.77,1087.67
1218,662.59,3701.23,1085.33
1219,662.70,3703.69,1080.33
1220,662.81,3706.14,1081.67
1221,662.92,3708.60,1096.67
1222,663.02,3711.05,1098.00
1223,663.13,3713.50,1084.33
1224,663.24,3715.95,1086.33
1225,663.35,3718.40,1082.33
1226,663.46,3720.85,1113.67
1227,663.56,3723.30,1102.33
1228,663.67,3725.75,1100.67
1229,663.78,3728.19,1084.33
1230,663.89,3730.64,1086.00
1231,663.99,3733.08,1103.00
1232,664.10,3735.52,1100.00
1233,664.21,3737.96,1104.67
1234,664.32,3740.40,1101.00
1235,664.42,3742.84,1109.67
1236,664.53,3745.28,1108.33
1237,664.64,3747.71,1102.67
1238,664.75,3750.15,1087.67
1239,664.85,3752.58,1083.33
1240,664.96,3755.02,1077.33
1241,665.07,3757.45,1069.67
1242,665.18,3759.88,1084.00
1243,665.29,3762.31,1102.33
1244,665.39,3764.74,1113.67
1245,665.50,3767.17,1098.67
1246,665.61,3769.59,1081.00
1247,665.72,3772.02,1085.33
1248,665.82,3774.44,1106.67
1249,665.93,3776.86,1118.67
1250,666.04,3779.29,1118.00
1251,666.14,3781.71,1099.00
1252,666.25,3784.13,1098.33
1253,666.36,3786.55,1100.33
1254,666.47,3788.96,1097.33
1255,666.57,3791.38,1102.67
1256,666.68,3793.79,1088.00
1257,666.79,3796.21,1096.00
1258,666.90,3798.62,1092.67
1259,667.00,3801.03,1095.33
1260,667.11,3803.45,1093.67
1261,667.22,3805.85,1104.33
1262,667.33,3808.26,1100.67
1263,667.43,3810.67,1096.67
1264,667.54,3813.08,1072.00
1265,667.65,3815.48,1091.33
1266,667.75,3817.89,1082.67
1267,667.86,3820.29,1084.67
1268,667.97,3822.69,1074.00
1269,668.08,3825.09,1081.00
1270,668.18,3827.49,1083.67
1271,668.29,3829.89,1076.00
1272,668.40,3832.29,1080.33
1273,668.50,3834.69,1077.00
1274,668.61,3837.08,1083.33
1275,668.72,3839.48,1086.33
1276,668.83,3841.87,1098.33
1277,668.93,3844.26,1091.00
1278,669.04,3846.65,1092.33
1279,669.15,3849.04,1082.33
1280,669.25,3851.43,1141.00
1281,669.36,3853.82,1142.33
1282,669.47,3856.21,1148.00
1283,669.57,3858.59,1102.00
1284,669.68,3860.98,1090.00
1285,669.79,3863.36,1094.33
1286,669.89,3865.74,1081.67
1287,670.00,3868.12,1091.67
1288,670.11,3870.50,1086.00
1289,670.22,3872.88,1093.33
1290,670.32,3875.26,1094.00
1291,670.43,3877.64,1098.33
1292,670.54,3880.01,1089.67
1293,670.64,3882.39,1084.67
1294,670.75,3884.76,1073.33
1295,670.86,3887.14,1087.33
1296,670.96,3889.51,1083.00
1297,671.07,3891.88,1091.33
1298,671.18,3894.25,1089.33
1299,671.28,3896.61,1086.67
1300,671.39,3898.98,1086.00
1301,671.50,3901.35,1069.67
1302,671.60,3903.71,1068.33
1303,671.71,3906.08,1067.00
1304,671.82,3908.44,1077.67
1305,671.92,3910.80,1095.33
1306,672.03,3913.16,1101.67
1307,672.14,3915.52,1106.00
1308,672.24,3917.88,1115.67
1309,672.35,3920.24,1108.33
1310,672.46,3922.59,1102.00
1311,672.56,3924.95,1076.00
1312,672.67,3927.30,1075.33
1313,672.78,3929.65,1074.67
1314,672.88,3932.01,1098.00
1315,672.99,3934.36,1105.33
1316,673.09,3936.71,1116.67
1317,673.20,3939.06,1097.67
1318,673.31,3941.40,1092.00
1319,673.41,3943.75,1085.33
1320,673.52,3946.09,1083.00
1321,673.63,3948.44,1087.67
1322,673.73,3950.78,1083.00
1323,673.84,3953.12,1097.00
1324,673.95,3955.47,1096.33
1325,674.05,3957.81,1106.00
1326,674.16,3960.14,1087.00
1327,674.26,3962.48,1085.67
1328,674.37,3964.82,1084.33
1329,674.48,3967.15,1106.33
1330,674.58,3969.49,1119.67
1331,674.69,3971.82,1120.33
1332,674.80,3974.15,1109.67
1333,674.90,3976.49,1099.33
1334,675.01,3978.82,1093.00
1335,675.11,3981.15,1082.67
1336,675.22,3983.47,1094.33
1337,675.33,3985.80,1094.33
1338,675.43,3988.13,1095.00
1339,675.54,3990.45,1070.33
1340,675.64,3992.77,1077.33
1341,675.75,3995.10,1073.67
1342,675.86,3997.42,1076.67
1343,675.96,3999.74,1069.67
1344,676.07,4002.06,1091.67
1345,676.17,4004.38,1093.67
1346,676.28,4006.70,1090.33
1347,676.39,4009.01,1076.00
1348,676.49,4011.33,1086.67
1349,676.60,4013.64,1095.67
1350,676.70,4015.95,1102.00
1351,676.81,4018.27,1103.33
1352,676.92,4020.58,1118.00
1353,677.02,4022.89,1103.33
1354,677.13,4025.20,1103.33
1355,677.23,4027.50,1081.00
1356,677.34,4029.81,1086.67
1357,677.45,4032.12,1071.33
1358,677.55,4034.42,1082.67
1359,677.66,4036.72,1089.67
1360,677.76,4039.03,1094.33
1361,677.87,4041.33,1086.33
1362,677.97,4043.63,1081.33
1363,678.08,4045.93,1085.67
1364,678.19,4048.22,1087.33
1365,678.29,4050.52,1089.67
1366,678.40,4052.82,1081.33
1367,678.50,4055.11,1092.33
1368,678.61,4057.41,1097.67
1369,678.71,4059.70,1100.33
1370,678.82,4061.99,1080.67
1371,678.92,4064.28,1080.00
1372,679.03,4066.57,1090.67
1373,679.14,4068.86,1095.67
1374,679.24,4071.15,1086.00
1375,679.35,4073.43,1089.00
1376,679.45,4075.72,1089.00
1377,679.56,4078.00,1098.67
1378,679.66,4080.29,1086.33
1379,679.77,4082.57,1088.33
1380,679.87,4084.85,1092.67
1381,679.98,4087.13,1096.33
1382,680.08,4089.41,1101.33
1383,680.19,4091.69,1103.33
1384,680.30,4093.96,1091.33
1385,680.40,4096.24,1080.67
1386,680.51,4098.51,1083.67
1387,680.61,4100.79,1098.00
1388,680.72,4103.06,1098.33
1389,680.82,4105.33,1087.67
1390,680.93,4107.60,1079.67
1391,681.03,4109.87,1085.67
1392,681.14,4112.14,1081.33
1393,681.24,4114.41,1092.00
1394,681.35,4116.67,1095.67
1395,681.45,4118.94,1102.00
1396,681.56,4121.20,1097.67
1397,681.66,4123.46,1087.00
1398,681.77,4125.73,1083.00
1399,681.87,4127.99,1076.00
1400,681.98,4130.25,1088.67
1401,682.08,4132.51,1094.33
1402,682.19,4134.76,1105.00
1403,682.29,4137.02,1106.00
1404,682.40,4139.28,1135.33
1405,682.50,4141.53,1136.00
1406,682.61,4143.78,1143.00
1407,682.71,4146.04,1110.67
1408,682.82,4148.29,1108.67
1409,682.92,4150.54,1104.33
1410,683.03,4152.79,1098.67
1411,683.13,4155.04,1101.33
1412,683.24,4157.28,1107.00
1413,683.34,4159.53,1111.33
1414,683.45,4161.78,1116.33
1415,683.55,4164.02,1093.67
1416,683.66,4166.26,1088.67
1417,683.76,4168.50,1074.33
1418,683.87,4170.75,1086.33
1419,683.97,4172.99,1097.00
1420,684.08,4175.22,1110.67
1421,684.18,4177.46,1095.33
1422,684.29,4179.70,1101.67
1423,684.39,4181.93,1093.67
1424,684.50,4184.17,1104.00
1425,684.60,4186.40,1077.33
1426,684.71,4188.64,1094.33
1427,684.81,4190.87,1103.00
1428,684.91,4193.10,1119.00
1429,685.02,4195.33,1104.33
1430,685.12,4197.56,1110.00
1431,685.23,4199.78,1113.00
1432,685.33,4202.01,1113.67
1433,685.44,4204.23,1101.67
1434,685.54,4206.46,1096.00
1435,685.65,4208.68,1097.33
1436,685.75,4210.90,1101.33
1437,685.86,4213.13,1113.33
1438,685.96,4215.35,1095.67
1439,686.06,4217.56,1091.67
1440,686.17,4219.78,1088.67
1441,686.27,4222.00,1110.00
1442,686.38,4224.22,1105.67
1443,686.48,4226.43,1095.00
1444,686.59,4228.64,1075.00
1445,686.69,4230.86,1083.67
1446,686.79,4233.07,1091.67
1447,686.90,4235.28,1100.33
1448,687.00,4237.49,1093.00
1449,687.11,4239.70,1078.67
1450,687.21,4241.90,1090.00
1451,687.32,4244.11,1093.67
1452,687.42,4246.32,1105.67
1453,687.52,4248.52,1114.00
1454,687.63,4250.73,1117.33
1455,687.73,4252.93,1097.67
1456,687.84,4255.13,1081.67
1457,687.94,4257.33,1076.00
1458,688.05,4259.53,1090.33
1459,688.15,4261.73,1087.33
1460,688.25,4263.92,1096.67
1461,688.36,4266.12,1105.67
1462,688.46,4268.32,1104.33
1463,688.57,4270.51,1097.33
1464,688.67,4272.70,1090.33
1465,688.77,4274.89,1084.00
1466,688.88,4277.09,1087.67
1467,688.98,4279.28,1092.00
1468,689.09,4281.47,1094.67
1469,689.19,4283.65,1083.33
1470,689.29,4285.84,1080.33
1471,689.40,4288.03,1092.33
1472,689.50,4290.21,1100.00
1473,689.60,4292.39,1092.33
1474,689.71,4294.58,1090.33
1475,689.81,4296.76,1082.00
1476,689.92,4298.94,1120.00
1477,690.02,4301.12,1113.00
1478,690.12,4303.30,1122.00
1479,690.23,4305.48,1089.00
1480,690.33,4307.65,1094.67
1481,690.43,4309.83,1096.67
1482,690.54,4312.00,1088.67
1483,690.64,4314.18,1092.00
1484,690.75,4316.35,1080.00
1485,690.85,4318.52,1083.00
1486,690.95,4320.69,1066.00
1487,691.06,4322.86,1076.67
1488,691.16,4325.03,1084.33
1489,691.26,4327.20,1077.33
1490,691.37,4329.36,1070.33
1491,691.47,4331.53,1063.33
1492,691.57,4333.69,1079.00
1493,691.68,4335.86,1088.00
1494,691.78,4338.02,1093.67
1495,691.88,4340.18,1090.00
1496,691.99,4342.34,1079.00
1497,692.09,4344.50,1074.67
1498,692.19,4346.66,1070.67
1499,692.30,4348.81,1068.33
1500,692.40,4350.97,1062.67
1501,692.50,4353.13,1078.00
1502,692.61,4355.28,1078.67
1503,692.71,4357.43,1081.67
1504,692.81,4359.59,1072.33
1505,692.92,4361.74,1074.67
1506,693.02,4363.89,1074.67
1507,693.12,4366.04,1077.00
1508,693.23,4368.18,1089.67
1509,693.33,4370.33,1091.00
1510,693.43,4372.48,1094.67
1511,693.54,4374.62,1085.33
1512,693.64,4376.77,1100.67
1513,693.74,4378.91,1099.00
1514,693.85,4381.05,1102.00
1515,693.95,4383.19,1095.00
1516,694.05,4385.33,1087.33
1517,694.16,4387.47,1078.00
1518,694.26,4389.61,1068.33
1519,694.36,4391.75,1081.00
1520,694.46,4393.88,1079.00
1521,694.57,4396.02,1075.33
1522,694.67,4398.15,1069.67
1523,694.77,4400.28,1075.33
1524,694.88,4402.41,1081.00
1525,694.98,4404.55,1091.00
1526,695.08,4406.68,1098.67
1527,695.19,4408.80,1108.00
1528,695.29,4410.93,1084.67
1529,695.39,4413.06,1082.67
1530,695.49,4415.18,1086.00
1531,695.60,4417.31,1098.67
1532,695.70,4419.43,1097.33
1533,695.80,4421.56,1088.33
1534,695.90,4423.68,1077.67
1535,696.01,4425.80,1073.33
1536,696.11,4427.92,1078.33
1537,696.21,4430.04,1079.00
1538,696.32,4432.15,1085.33
1539,696.42,4434.27,1085.00
1540,696.52,4436.39,1094.33
1541,696.62,4438.50,1085.67
1542,696.73,4440.61,1079.33
1543,696.83,4442.73,1075.00
1544,696.93,4444.84,1080.00
1545,697.03,4446.95,1077.33
1546,697.14,4449.06,1091.33
1547,697.24,4451.17,1092.00
1548,697.34,4453.28,1087.67
1549,697.44,4455.38,1102.67
1550,697.55,4457.49,1126.00
1551,697.65,4459.59,1136.00
1552,697.75,4461.70,1115.67
1553,697.85,4463.80,1102.33
1554,697.96,4465.90,1103.67
1555,698.06,4468.00,1095.00
1556,698.16,4470.10,1086.67
1557,698.26,4472.20,1091.00
1558,698.36,4474.30,1087.00
1559,698.47,4476.39,1084.00
1560,698.57,4478.49,1071.33
1561,698.67,4480.58,1074.00
1562,698.77,4482.68,1067.00
1563,698.88,4484.77,1066.33
1564,698.98,4486.86,1067.67
1565,699.08,4488.95,1071.33
1566,699.18,4491.04,1078.33
1567,699.28,4493.13,1091.67
1568,699.39,4495.22,1108.33
1569,699.49,4497.30,1103.33
1570,699.59,4499.39,1114.00
1571,699.69,4501.48,1103.00
1572,699.79,4503.56,1108.67
1573,699.90,4505.64,1087.67
1574,700.00,4507.72,1091.00
1575,700.10,4509.80,1102.33
1576,700.20,4511.88,1097.33
1577,700.30,4513.96,1091.67
1578,700.41,4516.04,1071.67
1579,700.51,4518.12,1082.33
1580,700.61,4520.19,1087.33
1581,700.71,4522.27,1099.33
1582,700.81,4524.34,1091.33
1583,700.92,4526.41,1089.33
1584,701.02,4528.49,1084.00
1585,701.12,4530.56,1082.67
1586,701.22,4532.63,1081.00
1587,701.32,4534.69,1086.33
1588,701.42,4536.76,1083.67
1589,701.53,4538.83,1081.67
1590,701.63,4540.89,1080.33
1591,701.73,4542.96,1091.67
1592,701.83,4545.02,1109.33
1593,701.93,4547.09,1103.67
1594,702.03,4549.15,1109.67
1595,702.14,4551.21,1093.33
1596,702.24,4553.27,1095.67
1597,702.34,4555.33,1077.33
1598,702.44,4557.39,1073.33
1599,702.54,4559.44,1075.33
1600,702.64,4561.50,1083.33
1601,702.75,4563.55,1106.33
1602,702.85,4565.61,1098.67
1603,702.95,4567.66,1098.00
1604,703.05,4569.71,1077.67
1605,703.15,4571.76,1089.67
1606,703.25,4573.81,1091.00
1607,703.35,4575.86,1093.00
1608,703.46,4577.91,1093.00
1609,703.56,4579.96,1094.33
1610,703.66,4582.00,1096.67
1611,703.76,4584.05,1097.33
1612,703.86,4586.09,1101.00
1613,703.96,4588.14,1099.67
1614,704.06,4590.18,1092.00
1615,704.16,4592.22,1089.00
1616,704.27,4594.26,1091.00
1617,704.37,4596.30,1096.67
1618,704.47,4598.34,1091.67
1619,704.57,4600.37,1091.67
1620,704.67,4602.41,1091.33
1621,704.77,4604.45,1097.00
1622,704.87,4606.48,1108.33
1623,704.97,4608.51,1094.33
1624,705.07,4610.55,1098.00
1625,705.17,4612.58,1107.67
1626,705.28,4614.61,1117.00
1627,705.38,4616.64,1108.33
1628,705.48,4618.67,1083.00
1629,705.58,4620.69,1082.00
1630,705.68,4622.72,1085.00
1631,705.78,4624.74,1086.33
1632,705.88,4626.77,1109.67
1633,705.98,4628.79,1115.33
1634,706.08,4630.82,1126.00
1635,706.18,4632.84,1108.67
1636,706.28,4634.86,1115.00
1637,706.39,4636.88,1110.00
1638,706.49,4638.90,1113.33
1639,706.59,4640.91,1105.00
1640,706.69,4642.93,1110.00
1641,706.79,4644.95,1117.00
1642,706.89,4646.96,1131.00
1643,706.99,4648.98,1127.67
1644,707.09,4650.99,1115.67
1645,707.19,4653.00,1114.33
1646,707.29,4655.01,1134.00
1647,707.39,4657.02,1134.00
1648,707.49,4659.03,1115.00
1649,707.59,4661.04,1097.33
1650,707.69,4663.05,1098.00
1651,707.79,4665.05,1104.33
1652,707.89,4667.06,1096.00
1653,707.99,4669.06,1096.00
1654,708.10,4671.06,1094.33
1655,708.20,4673.07,1104.00
1656,708.30,4675.07,1154.67
1657,708.40,4677.07,1166.00
1658,708.50,4679.07,1161.00
1659,708.60,4681.06,1126.67
1660,708.70,4683.06,1130.33
1661,708.80,4685.06,1148.67
1662,708.90,4687.05,1141.67
1663,709.00,4689.05,1126.00
1664,709.10,4691.04,1118.33
1665,709.20,4693.03,1128.00
1666,709.30,4695.03,1146.33
1667,709.40,4697.02,1135.67
1668,709.50,4699.01,1115.33
1669,709.60,4701.00,1090.67
1670,709.70,4702.98,1091.67
1671,709.80,4704.97,1092.33
1672,709.90,4706.96,1094.33
1673,710.00,4708.94,1095.00
1674,710.10,4710.92,1095.67
1675,710.20,4712.91,1097.33
1676,710.30,4714.89,1091.67
1677,710.40,4716.87,1094.67
1678,710.50,4718.85,1093.33
1679,710.60,4720.83,1098.33
1680,710.70,4722.81,1108.00
1681,710.80,4724.78,1113.33
1682,710.90,4726.76,1121.67
1683,711.00,4728.74,1119.67
1684,711.10,4730.71,1124.00
1685,711.20,4732.68,1120.33
1686,711.30,4734.66,1109.67
1687,711.40,4736.63,1100.67
1688,711.50,4738.60,1096.00
1689,711.60,4740.57,1109.33
1690,711.70,4742.54,1122.00
1691,711.80,4744.50,1136.00
1692,711.90,4746.47,1115.67
1693,712.00,4748.44,1106.33
1694,712.10,4750.40,1098.67
1695,712.20,4752.36,1112.67
1696,712.29,4754.33,1115.00
1697,712.39,4756.29,1102.00
1698,712.49,4758.25,1084.00
1699,712.59,4760.21,1078.33
1700,712.69,4762.17,1082.00
1701,712.79,4764.13,1082.67
1702,712.89,4766.08,1079.00
1703,712.99,4768.04,1083.33
1704,713.09,4770.00,1091.67
1705,713.19,4771.95,1098.67
1706,713.29,4773.90,1111.33
1707,713.39,4775.86,1108.33
1708,713.49,4777.81,1100.67
1709,713.59,4779.76,1086.33
1710,713.69,4781.71,1093.67
1711,713.79,4783.66,1117.67
1712,713.89,4785.60,1105.00
1713,713.98,4787.55,1093.00
1714,714.08,4789.50,1082.33
1715,714.18,4791.44,1093.67
1716,714.28,4793.38,1102.67
1717,714.38,4795.33,1096.33
1718,714.48,4797.27,1098.00
1719,714.58,4799.21,1094.67
1720,714.68,4801.15,1096.00
1721,714.78,4803.09,1101.33
1722,714.88,4805.03,1100.33
1723,714.98,4806.96,1101.33
1724,715.07,4808.90,1091.00
1725,715.17,4810.84,1091.33
1726,715.27,4812.77,1084.00
1727,715.37,4814.70,1086.67
1728,715.47,4816.64,1080.33
1729,715.57,4818.57,1075.67
1730,715.67,4820.50,1090.67
1731,715.77,4822.43,1099.67
1732,715.87,4824.36,1110.00
1733,715.96,4826.28,1079.00
1734,716.06,4828.21,1084.67
1735,716.16,4830.14,1080.33
1736,716.26,4832.06,1089.33
1737,716.36,4833.99,1075.33
1738,716.46,4835.91,1076.33
1739,716.56,4837.83,1079.00
1740,716.66,4839.75,1083.00
1741,716.75,4841.67,1082.33
1742,716.85,4843.59,1084.00
1743,716.95,4845.51,1084.00
1744,717.05,4847.43,1112.67
1745,717.15,4849.34,1116.67
1746,717.25,4851.26,1122.33
1747,717.35,4853.17,1093.67
1748,717.44,4855.09,1108.00
1749,717.54,4857.00,1111.00
1750,717.64,4858.91,1109.33
1751,717.74,4860.82,1093.67
1752,717.84,4862.73,1086.33
1753,717.94,4864.64,1100.67
1754,718.03,4866.55,1091.67
1755,718.13,4868.46,1099.00
1756,718.23,4870.36,1091.00
1757,718.33,4872.27,1103.00
1758,718.43,4874.17,1095.67
1759,718.53,4876.08,1098.67
1760,718.62,4877.98,1087.33
1761,718.72,4879.88,1111.33
1762,718.82,4881.78,1118.33
1763,718.92,4883.68,1124.00
1764,719.02,4885.58,1111.33
1765,719.11,4887.48,1100.67
1766,719.21,4889.37,1091.33
1767,719.31,4891.27,1081.67
1768,719.41,4893.17,1077.67
1769,719.51,4895.06,1083.33
1770,719.61,4896.95,1082.67
1771,719.70,4898.84,1104.33
1772,719.80,4900.74,1121.33
1773,719.90,4902.63,1139.00
1774,720.00,4904.52,1115.67
1775,720.10,4906.40,1108.00
1776,720.19,4908.29,1084.67
1777,720.29,4910.18,1097.33
1778,720.39,4912.06,1091.00
1779,720.49,4913.95,1107.00
1780,720.58,4915.83,1114.33
1781,720.68,4917.72,1136.67
1782,720.78,4919.60,1134.00
1783,720.88,4921.48,1145.67
1784,720.98,4923.36,1126.67
1785,721.07,4925.24,1119.00
1786,721.17,4927.12,1082.67
1787,721.27,4928.99,1070.67
1788,721.37,4930.87,1077.00
1789,721.46,4932.75,1085.33
1790,721.56,4934.62,1105.67
1791,721.66,4936.49,1115.33
1792,721.76,4938.37,1123.00
1793,721.85,4940.24,1115.33
1794,721.95,4942.11,1090.67
1795,722.05,4943.98,1090.00
1796,722.15,4945.85,1093.00
1797,722.24,4947.72,1107.33
1798,722.34,4949.58,1106.67
1799,722.44,4951.45,1103.00
1800,722.54,4953.32,1095.00
1801,722.63,4955.18,1097.67
1802,722.73,4957.04,1099.00
1803,722.83,4958.91,1114.00
1804,722.93,4960.77,1099.33
1805,723.02,4962.63,1083.33
1806,723.12,4964.49,1075.67
1807,723.22,4966.35,1079.33
1808,723.31,4968.21,1085.00
1809,723.41,4970.06,1080.00
1810,723.51,4971.92,1070.67
1811,723.61,4973.77,1082.67
1812,723.70,4975.63,1083.33
1813,723.80,4977.48,1101.00
1814,723.90,4979.34,1092.33
1815,723.99,4981.19,1105.00
1816,724.09,4983.04,1087.33
1817,724.19,4984.89,1084.00
1818,724.28,4986.74,1080.33
1819,724.38,4988.58,1092.33
1820,724.48,4990.43,1107.00
1821,724.58,4992.28,1105.67
1822,724.67,4994.12,1104.33
1823,724.77,4995.97,1109.33
1824,724.87,4997.81,1108.67
1825,724.96,4999.65,1107.00
1826,725.06,5001.49,1095.00
1827,725.16,5003.34,1094.33
1828,725.25,5005.17,1086.00
1829,725.35,5007.01,1082.33
1830,725.45,5008.85,1081.00
1831,725.54,5010.69,1085.33
1832,725.64,5012.52,1105.00
1833,725.74,5014.36,1102.67
1834,725.83,5016.19,1103.33
1835,725.93,5018.03,1091.00
1836,726.03,5019.86,1097.33
1837,726.12,5021.69,1108.00
1838,726.22,5023.52,1108.67
1839,726.32,5025.35,1087.67
1840,726.41,5027.18,1087.67
1841,726.51,5029.01,1093.33
1842,726.61,5030.84,1107.33
1843,726.70,5032.66,1108.00
1844,726.80,5034.49,1086.67
1845,726.89,5036.31,1089.00
1846,726.99,5038.14,1079.00
1847,727.09,5039.96,1096.67
1848,727.18,5041.78,1095.00
1849,727.28,5043.60,1089.33
1850,727.38,5045.42,1085.67
1851,727.47,5047.24,1080.67
1852,727.57,5049.06,1087.67
1853,727.67,5050.87,1083.67
1854,727.76,5052.69,1088.67
1855,727.86,5054.51,1090.33
1856,727.95,5056.32,1089.33
1857,728.05,5058.13,1090.00
1858,728.15,5059.95,1090.67
1859,728.24,5061.76,1095.67
1860,728.34,5063.57,1089.33
1861,728.43,5065.38,1092.67
1862,728.53,5067.19,1090.00
1863,728.63,5068.99,1103.33
1864,728.72,5070.80,1114.67
1865,728.82,5072.61,1101.33
1866,728.91,5074.41,1093.00
1867,729.01,5076.22,1076.00
1868,729.11,5078.02,1121.67
1869,729.20,5079.82,1123.67
1870,729.30,5081.63,1131.00
1871,729.39,5083.43,1090.00
1872,729.49,5085.23,1080.33
1873,729.58,5087.03,1085.67
1874,729.68,5088.82,1095.00
1875,729.78,5090.62,1098.33
1876,729.87,5092.42,1084.33
1877,729.97,5094.21,1081.67
1878,730.06,5096.01,1092.33
1879,730.16,5097.80,1101.00
1880,730.25,5099.59,1106.33
1881,730.35,5101.39,1113.33
1882,730.45,5103.18,1112.33
1883,730.54,5104.97,1112.33
1884,730.64,5106.76,1116.00
1885,730.73,5108.54,1122.67
1886,730.83,5110.33,1115.67
1887,730.92,5112.12,1101.67
1888,731.02,5113.90,1092.33
1889,731.11,5115.69,1106.00
1890,731.21,5117.47,1099.67
1891,731.30,5119.26,1105.33
1892,731.40,5121.04,1124.00
1893,731.49,5122.82,1117.33
1894,731.59,5124.60,1106.00
1895,731.69,5126.38,1074.33
1896,731.78,5128.16,1079.33
1897,731.88,5129.94,1076.67
1898,731.97,5131.71,1080.33
1899,732.07,5133.49,1082.67
1900,732.16,5135.26,1093.67
1901,732.26,5137.04,1102.67
1902,732.35,5138.81,1110.33
1903,732.45,5140.58,1120.33
1904,732.54,5142.35,1112.67
1905,732.64,5144.12,1116.00
1906,732.73,5145.89,1106.33
1907,732.83,5147.66,1106.33
1908,732.92,5149.43,1093.67
1909,733.02,5151.20,1083.00
1910,733.11,5152.96,1096.33
1911,733.21,5154.73,1102.00
1912,733.30,5156.49,1104.00
1913,733.40,5158.26,1102.00
1914,733.49,5160.02,1103.67
1915,733.59,5161.78,1122.67
1916,733.68,5163.54,1107.33
1917,733.77,5165.30,1101.67
1918,733.87,5167.06,1096.00
1919,733.96,5168.82,1107.67
1920,734.06,5170.58,1112.33
1921,734.15,5172.33,1101.67
1922,734.25,5174.09,1089.00
1923,734.34,5175.84,1082.00
1924,734.44,5177.60,1082.00
1925,734.53,5179.35,1097.00
1926,734.63,5181.10,1098.33
1927,734.72,5182.85,1116.67
1928,734.82,5184.60,1159.00
1929,734.91,5186.35,1163.33
1930,735.00,5188.10,1142.33
1931,735.10,5189.85,1104.00
1932,735.19,5191.59,1114.00
1933,735.29,5193.34,1114.00
1934,735.38,5195.09,1091.00
1935,735.48,5196.83,1079.00
1936,735.57,5198.57,1088.33
1937,735.66,5200.31,1096.67
1938,735.76,5202.06,1092.33
1939,735.85,5203.80,1087.33
1940,735.95,5205.54,1086.00
1941,736.04,5207.28,1091.00
1942,736.14,5209.01,1103.67
1943,736.23,5210.75,1110.00
1944,736.32,5212.49,1110.00
1945,736.42,5214.22,1117.67
1946,736.51,5215.96,1117.67
1947,736.61,5217.69,1113.33
1948,736.70,5219.42,1091.33
1949,736.79,5221.15,1095.67
1950,736.89,5222.89,1131.67
1951,736.98,5224.62,1132.00
1952,737.08,5226.34,1117.00
1953,737.17,5228.07,1102.33
1954,737.26,5229.80,1111.33
1955,737.36,5231.53,1111.33
1956,737.45,5233.25,1116.00
1957,737.55,5234.98,1121.67
1958,737.64,5236.70,1131.00
1959,737.73,5238.42,1114.33
1960,737.83,5240.15,1111.67
1961,737.92,5241.87,1123.00
1962,738.01,5243.59,1117.33
1963,738.11,5245.31,1130.00
1964,738.20,5247.03,1125.00
1965,738.30,5248.74,1134.00
1966,738.39,5250.46,1115.00
1967,738.48,5252.18,1108.00
1968,738.58,5253.89,1109.00
1969,738.67,5255.61,1097.67
1970,738.76,5257.32,1101.67
1971,738.86,5259.03,1094.33
1972,738.95,5260.75,1109.00
1973,739.04,5262.46,1112.00
1974,739.14,5264.17,1122.00
1975,739.23,5265.88,1125.00
1976,739.32,5267.58,1115.67
1977,739.42,5269.29,1122.00
1978,739.51,5271.00,1114.00
1979,739.60,5272.70,1134.33
1980,739.70,5274.41,1125.00
1981,739.79,5276.11,1131.33
1982,739.88,5277.82,1110.33
1983,739.98,5279.52,1112.67
1984,740.07,5281.22,1105.67
1985,740.16,5282.92,1098.00
1986,740.26,5284.62,1091.00
1987,740.35,5286.32,1100.33
1988,740.44,5288.02,1107.33
1989,740.54,5289.71,1119.33
1990,740.63,5291.41,1115.00
1991,740.72,5293.10,1116.33
1992,740.81,5294.80,1110.67
1993,740.91,5296.49,1107.67
1994,741.00,5298.19,1121.67
1995,741.09,5299.88,1110.33
1996,741.19,5301.57,1119.00
1997,741.28,5303.26,1114.33
1998,741.37,5304.95,1122.67
1999,741.46,5306.64,1114.00
2000,741.56,5308.32,1105.33
2001,741.65,5310.01,1101.33
2002,741.74,5311.70,1112.67
2003,741.84,5313.38,1115.00
2004,741.93,5315.07,1131.00
2005,742.02,5316.75,1126.33
2006,742.11,5318.43,1118.33
2007,742.21,5320.11,1110.00
2008,742.30,5321.79,1114.00
2009,742.39,5323.47,1128.33
2010,742.48,5325.15,1126.00
2011,742.58,5326.83,1122.00
2012,742.67,5328.51,1103.00
2013,742.76,5330.19,1105.33
2014,742.85,5331.86,1094.67
2015,742.95,5333.54,1103.67
2016,743.04,5335.21,1095.00
2017,743.13,5336.88,1094.33
2018,743.22,5338.56,1098.00
2019,743.32,5340.23,1095.33
2020,743.41,5341.90,1093.67
2021,743.50,5343.57,1093.67
2022,743.59,5345.24,1103.67
2023,743.68,5346.90,1098.00
2024,743.78,5348.57,1114.00
2025,743.87,5350.24,1099.00
2026,743.96,5351.90,1108.33
2027,744.05,5353.57,1088.00
2028,744.15,5355.23,1093.00
2029,744.24,5356.89,1091.00
2030,744.33,5358.56,1073.33
2031,744.42,5360.22,1084.67
2032,744.51,5361.88,1088.67
2033,744.61,5363.54,1107.67
2034,744.70,5365.20,1089.33
2035,744.79,5366.85,1086.67
2036,744.88,5368.51,1078.33
2037,744.97,5370.17,1071.33
2038,745.07,5371.82,1066.33
2039,745.16,5373.48,1065.67
2040,745.25,5375.13,1064.33
2041,745.34,5376.78,1056.00
2042,745.43,5378.43,1061.67
2043,745.52,5380.09,1055.00
2044,745.62,5381.74,1049.33
2045,745.71,5383.38,1041.33
2046,745.80,5385.03,1063.00
